SpectraSuite Data File
++++++++++++++++++++++++++++++++++++
Date: Thu Nov 16 14:07:21 EST 2017
User: cheriyan
Dark Spectrum Present: No
Reference Spectrum Present: No
Number of Sampled Component Spectra: 1
Spectrometers: USB2+H05261
Integration Time (usec): 100000 (USB2+H05261)
Spectra Averaged: 1 (USB2+H05261)
Boxcar Smoothing: 1 (USB2+H05261)
Correct for Electrical Dark: No (USB2+H05261)
Strobe/Lamp Enabled: No (USB2+H05261)
Correct for Detector Non-linearity: No (USB2+H05261)
Correct for Stray Light: No (USB2+H05261)
Number of Pixels in Processed Spectrum: 2048
>>>>>Begin Processed Spectral Data<<<<<
0.00	355.76
1.00	355.76
2.00	323.77
3.00	298.81
4.00	275.40
5.00	266.04
6.00	251.22
7.00	227.81
8.00	226.25
9.00	222.35
10.00	220.01
11.00	212.99
12.00	208.31
13.00	204.41
14.00	227.03
15.00	234.83
16.00	259.02
17.00	259.80
18.00	273.06
19.00	279.30
20.00	269.16
21.00	283.98
22.00	298.03
23.00	353.42
24.00	413.49
25.00	535.98
26.00	614.00
27.00	681.88
28.00	672.51
29.00	709.96
30.00	692.80
31.00	685.00
32.00	670.95
33.00	673.29
34.00	698.26
35.00	718.54
36.00	741.17
37.00	757.55
38.00	727.13
39.00	712.30
40.00	702.16
41.00	718.54
42.00	738.05
43.00	737.27
44.00	772.38
45.00	767.70
46.00	801.24
47.00	788.76
48.00	804.36
49.00	777.84
50.00	755.99
51.00	769.26
52.00	786.42
53.00	806.70
54.00	795.78
55.00	781.74
56.00	796.56
57.00	806.70
58.00	798.12
59.00	770.04
60.00	754.43
61.00	761.45
62.00	763.79
63.00	768.48
64.00	809.05
65.00	819.97
66.00	844.93
67.00	813.73
68.00	815.29
69.00	790.32
70.00	792.66
71.00	776.28
72.00	791.10
73.00	787.20
74.00	805.14
75.00	813.73
76.00	822.31
77.00	816.85
78.00	800.46
79.00	822.31
80.00	867.56
81.00	861.32
82.00	845.71
83.00	844.93
84.00	903.45
85.00	925.29
86.00	897.99
87.00	872.24
88.00	873.02
89.00	898.77
90.00	912.81
91.00	935.43
92.00	917.49
93.00	910.47
94.00	868.34
95.00	854.30
96.00	867.56
97.00	893.30
98.00	950.26
99.00	961.18
100.00	970.54
101.00	912.03
102.00	893.30
103.00	920.61
104.00	970.54
105.00	973.66
106.00	935.43
107.00	926.07
108.00	954.16
109.00	972.10
110.00	981.46
111.00	961.96
112.00	929.97
113.00	901.11
114.00	936.21
115.00	977.56
116.00	1033.74
117.00	1047.00
118.00	1086.79
119.00	1084.45
120.00	1038.42
121.00	1018.13
122.00	986.93
123.00	1016.57
124.00	1025.93
125.00	1036.86
126.00	1029.06
127.00	1017.35
128.00	1029.84
129.00	1034.52
130.00	1043.10
131.00	1083.67
132.00	1101.61
133.00	1124.24
134.00	1111.75
135.00	1134.38
136.00	1126.58
137.00	1125.02
138.00	1113.31
139.00	1108.63
140.00	1149.20
141.00	1129.70
142.00	1136.72
143.00	1105.51
144.00	1146.86
145.00	1147.64
146.00	1145.30
147.00	1160.91
148.00	1194.45
149.00	1224.88
150.00	1188.99
151.00	1156.22
152.00	1163.25
153.00	1192.11
154.00	1238.92
155.00	1249.07
156.00	1238.14
157.00	1242.82
158.00	1213.18
159.00	1238.14
160.00	1211.62
161.00	1242.04
162.00	1253.75
163.00	1277.15
164.00	1270.13
165.00	1271.69
166.00	1255.31
167.00	1267.01
168.00	1224.10
169.00	1256.09
170.00	1285.73
171.00	1329.42
172.00	1325.52
173.00	1306.02
174.00	1298.22
175.00	1297.44
176.00	1330.98
177.00	1377.02
178.00	1373.11
179.00	1326.30
180.00	1291.98
181.00	1335.67
182.00	1407.44
183.00	1421.49
184.00	1405.88
185.00	1355.95
186.00	1348.15
187.00	1359.85
188.00	1393.40
189.00	1444.11
190.00	1461.27
191.00	1458.15
192.00	1423.05
193.00	1415.24
194.00	1430.85
195.00	1465.18
196.00	1485.46
197.00	1494.04
198.00	1476.10
199.00	1488.58
200.00	1467.52
201.00	1510.43
202.00	1479.22
203.00	1492.48
204.00	1487.80
205.00	1543.97
206.00	1564.26
207.00	1590.78
208.00	1599.37
209.00	1621.21
210.00	1614.19
211.00	1612.63
212.00	1615.75
213.00	1619.65
214.00	1615.75
215.00	1632.91
216.00	1659.44
217.00	1663.34
218.00	1689.87
219.00	1675.04
220.00	1703.13
221.00	1700.01
222.00	1722.63
223.00	1728.88
224.00	1745.26
225.00	1771.01
226.00	1786.61
227.00	1792.85
228.00	1764.76
229.00	1771.01
230.00	1768.66
231.00	1786.61
232.00	1750.72
233.00	1747.60
234.00	1757.74
235.00	1800.65
236.00	1813.92
237.00	1814.70
238.00	1812.35
239.00	1839.66
240.00	1866.97
241.00	1898.17
242.00	1912.22
243.00	1932.50
244.00	1907.54
245.00	1913.78
246.00	1877.89
247.00	1912.22
248.00	1890.37
249.00	1940.30
250.00	1945.77
251.00	1989.46
252.00	2001.94
253.00	2037.05
254.00	2065.91
255.00	2106.48
256.00	2153.29
257.00	2152.51
258.00	2175.92
259.00	2140.03
260.00	2132.23
261.00	2122.87
262.00	2157.19
263.00	2204.78
264.00	2185.28
265.00	2175.92
266.00	2152.51
267.00	2218.83
268.00	2285.92
269.00	2317.13
270.00	2304.65
271.00	2259.40
272.00	2289.82
273.00	2297.63
274.00	2367.84
275.00	2386.57
276.00	2416.99
277.00	2361.60
278.00	2328.83
279.00	2353.80
280.00	2413.87
281.00	2476.29
282.00	2501.25
283.00	2459.90
284.00	2440.40
285.00	2433.38
286.00	2480.19
287.00	2487.21
288.00	2470.05
289.00	2492.67
290.00	2502.03
291.00	2508.27
292.00	2505.15
293.00	2532.46
294.00	2534.80
295.00	2554.30
296.00	2515.30
297.00	2531.68
298.00	2510.61
299.00	2531.68
300.00	2566.79
301.00	2584.73
302.00	2620.62
303.00	2636.22
304.00	2667.43
305.00	2699.42
306.00	2698.64
307.00	2693.96
308.00	2660.41
309.00	2654.95
310.00	2675.23
311.00	2708.00
312.00	2702.54
313.00	2699.42
314.00	2668.21
315.00	2667.43
316.00	2672.89
317.00	2699.42
318.00	2685.37
319.00	2718.14
320.00	2772.75
321.00	2793.82
322.00	2743.89
323.00	2686.94
324.00	2729.84
325.00	2766.51
326.00	2835.17
327.00	2870.28
328.00	2885.88
329.00	2923.33
330.00	2942.05
331.00	2974.04
332.00	2912.41
333.00	2882.76
334.00	2896.02
335.00	2937.37
336.00	3005.25
337.00	3055.96
338.00	3081.71
339.00	3023.97
340.00	3006.03
341.00	3040.36
342.00	3070.78
343.00	3118.37
344.00	3125.40
345.00	3139.44
346.00	3089.51
347.00	3089.51
348.00	3093.41
349.00	3177.67
350.00	3197.17
351.00	3272.07
352.00	3187.03
353.00	3224.48
354.00	3191.71
355.00	3238.52
356.00	3221.36
357.00	3254.90
358.00	3287.67
359.00	3258.03
360.00	3272.85
361.00	3332.92
362.00	3410.16
363.00	3407.04
364.00	3378.17
365.00	3368.03
366.00	3375.83
367.00	3381.29
368.00	3433.57
369.00	3460.09
370.00	3516.26
371.00	3496.76
372.00	3519.39
373.00	3481.16
374.00	3510.80
375.00	3526.41
376.00	3609.89
377.00	3614.57
378.00	3652.02
379.00	3644.99
380.00	3642.65
381.00	3665.28
382.00	3694.15
383.00	3733.15
384.00	3777.62
385.00	3775.28
386.00	3824.44
387.00	3826.00
388.00	3850.18
389.00	3888.41
390.00	3921.18
391.00	3981.25
392.00	3955.51
393.00	3973.45
394.00	3982.03
395.00	4048.35
396.00	4063.17
397.00	4095.94
398.00	4092.04
399.00	4178.64
400.00	4172.39
401.00	4226.23
402.00	4199.70
403.00	4279.28
404.00	4305.81
405.00	4323.75
406.00	4316.73
407.00	4311.27
408.00	4273.04
409.00	4245.73
410.00	4298.00
411.00	4351.06
412.00	4331.55
413.00	4352.62
414.00	4390.84
415.00	4487.59
416.00	4491.49
417.00	4428.29
418.00	4394.75
419.00	4375.24
420.00	4456.38
421.00	4450.14
422.00	4404.89
423.00	4378.36
424.00	4425.95
425.00	4488.37
426.00	4487.59
427.00	4451.70
428.00	4391.63
429.00	4440.78
430.00	4450.92
431.00	4465.74
432.00	4458.72
433.00	4472.76
434.00	4572.63
435.00	4612.42
436.00	4709.94
437.00	4730.22
438.00	4745.05
439.00	4674.83
440.00	4673.27
441.00	4686.53
442.00	4733.34
443.00	4731.78
444.00	4761.43
445.00	4784.06
446.00	4789.52
447.00	4845.69
448.00	4867.53
449.00	4883.14
450.00	4862.85
451.00	4870.65
452.00	4967.40
453.00	4983.00
454.00	4990.80
455.00	4962.72
456.00	5010.31
457.00	5096.13
458.00	5128.89
459.00	5074.28
460.00	5062.58
461.00	5065.70
462.00	5142.16
463.00	5136.70
464.00	5184.29
465.00	5193.65
466.00	5221.74
467.00	5303.65
468.00	5316.92
469.00	5386.35
470.00	5340.32
471.00	5372.31
472.00	5388.69
473.00	5387.13
474.00	5441.75
475.00	5447.99
476.00	5479.97
477.00	5494.80
478.00	5539.27
479.00	5645.37
480.00	5659.42
481.00	5697.64
482.00	5666.44
483.00	5618.07
484.00	5625.09
485.00	5618.85
486.00	5736.65
487.00	5741.33
488.00	5809.21
489.00	5840.42
490.00	5884.89
491.00	5967.59
492.00	5963.68
493.00	5993.33
494.00	5950.42
495.00	5936.38
496.00	5926.24
497.00	6008.94
498.00	6040.92
499.00	6101.78
500.00	5998.01
501.00	6012.06
502.00	5983.97
503.00	6036.24
504.00	6054.19
505.00	6109.58
506.00	6175.89
507.00	6285.90
508.00	6264.83
509.00	6200.08
510.00	6179.01
511.00	6255.47
512.00	6338.17
513.00	6384.20
514.00	6427.89
515.00	6463.00
516.00	6463.78
517.00	6507.47
518.00	6548.82
519.00	6540.24
520.00	6569.10
521.00	6604.21
522.00	6635.42
523.00	6596.41
524.00	6600.31
525.00	6665.07
526.00	6715.78
527.00	6759.47
528.00	6728.26
529.00	6656.48
530.00	6625.28
531.00	6678.33
532.00	6771.95
533.00	6860.89
534.00	6871.03
535.00	6899.12
536.00	6861.67
537.00	6839.05
538.00	6878.05
539.00	6942.03
540.00	7011.46
541.00	6991.18
542.00	7053.59
543.00	7174.52
544.00	7292.33
545.00	7231.48
546.00	7183.10
547.00	7175.30
548.00	7272.82
549.00	7360.20
550.00	7387.51
551.00	7364.11
552.00	7360.98
553.00	7311.83
554.00	7338.36
555.00	7319.64
556.00	7346.16
557.00	7373.47
558.00	7383.61
559.00	7479.57
560.00	7601.28
561.00	7686.32
562.00	7694.90
563.00	7613.76
564.00	7698.02
565.00	7769.02
566.00	7928.17
567.00	7921.93
568.00	7964.06
569.00	7959.38
570.00	8026.48
571.00	8173.15
572.00	8191.09
573.00	8123.22
574.00	8058.46
575.00	8120.10
576.00	8341.67
577.00	8372.10
578.00	8419.69
579.00	8334.65
580.00	8432.17
581.00	8443.09
582.00	8570.26
583.00	8649.84
584.00	8809.78
585.00	8865.95
586.00	8947.09
587.00	8906.52
588.00	8968.15
589.00	8951.77
590.00	9096.88
591.00	9135.89
592.00	9227.95
593.00	9366.82
594.00	9425.34
595.00	9559.53
596.00	9527.54
597.00	9633.64
598.00	9668.75
599.00	9731.17
600.00	9858.34
601.00	9955.86
602.00	10079.91
603.00	10204.74
604.00	10257.01
605.00	10415.38
606.00	10370.91
607.00	10433.33
608.00	10445.03
609.00	10553.48
610.00	10582.34
611.00	10580.78
612.00	10610.43
613.00	10717.31
614.00	10771.93
615.00	10842.92
616.00	11000.52
617.00	11169.04
618.00	11316.49
619.00	11358.62
620.00	11357.84
621.00	11412.45
622.00	11504.51
623.00	11663.67
624.00	11776.80
625.00	11830.63
626.00	11918.79
627.00	11957.80
628.00	12074.04
629.00	12208.23
630.00	12377.53
631.00	12422.78
632.00	12351.79
633.00	12509.38
634.00	12725.49
635.00	12965.79
636.00	13021.96
637.00	13166.29
638.00	13253.67
639.00	13301.26
640.00	13264.60
641.00	13286.44
642.00	13351.20
643.00	13473.68
644.00	13631.28
645.00	13743.63
646.00	13691.35
647.00	13736.60
648.00	13855.97
649.00	14139.18
650.00	14292.09
651.00	14434.08
652.00	14463.73
653.00	14565.93
654.00	14651.75
655.00	14670.48
656.00	14661.90
657.00	14669.70
658.00	14824.17
659.00	15049.64
660.00	15231.43
661.00	15356.25
662.00	15508.39
663.00	15657.40
664.00	15784.57
665.00	15723.72
666.00	15835.28
667.00	16003.02
668.00	16223.81
669.00	16306.51
670.00	16355.66
671.00	16307.29
672.00	16401.69
673.00	16362.69
674.00	16648.23
675.00	16661.49
676.00	16780.86
677.00	16659.15
678.00	16773.06
679.00	16981.37
680.00	17338.69
681.00	17482.24
682.00	17604.73
683.00	17565.72
684.00	17691.33
685.00	17790.41
686.00	17939.43
687.00	17994.82
688.00	18045.53
689.00	18203.13
690.00	18368.52
691.00	18453.56
692.00	18526.90
693.00	18535.48
694.00	18744.57
695.00	18856.92
696.00	19013.73
697.00	19101.11
698.00	19240.76
699.00	19265.73
700.00	19334.39
701.00	19388.22
702.00	19489.64
703.00	19596.53
704.00	19679.22
705.00	19793.13
706.00	19849.30
707.00	19919.52
708.00	20147.33
709.00	20263.58
710.00	20497.63
711.00	20606.86
712.00	20844.03
713.00	20868.22
714.00	20793.32
715.00	20737.93
716.00	20866.66
717.00	20996.17
718.00	21128.02
719.00	21231.78
720.00	21311.36
721.00	21448.67
722.00	21438.53
723.00	21566.48
724.00	21572.72
725.00	21676.48
726.00	21643.71
727.00	21805.99
728.00	21875.43
729.00	22090.76
730.00	22055.65
731.00	22038.48
732.00	21937.06
733.00	21846.56
734.00	21941.74
735.00	22153.17
736.00	22333.39
737.00	22463.68
738.00	22545.60
739.00	22734.40
740.00	22769.51
741.00	22916.19
742.00	22916.19
743.00	23058.96
744.00	23074.56
745.00	23286.77
746.00	23271.17
747.00	23374.15
748.00	23427.98
749.00	23476.35
750.00	23570.76
751.00	23465.43
752.00	23614.45
753.00	23579.34
754.00	23775.16
755.00	23824.31
756.00	23980.35
757.00	24022.48
758.00	24124.68
759.00	24181.63
760.00	24311.14
761.00	24314.27
762.00	24358.74
763.00	24428.95
764.00	24722.30
765.00	24856.49
766.00	25085.08
767.00	25165.44
768.00	25266.08
769.00	25406.52
770.00	25573.47
771.00	25754.47
772.00	25721.71
773.00	25713.91
774.00	25734.19
775.00	25866.82
776.00	25930.80
777.00	25980.73
778.00	25964.34
779.00	25960.44
780.00	25923.77
781.00	26075.91
782.00	26231.94
783.00	26604.87
784.00	26714.09
785.00	26835.80
786.00	26920.84
787.00	26893.54
788.00	27069.08
789.00	26977.01
790.00	27120.57
791.00	27097.94
792.00	27274.26
793.00	27305.47
794.00	27277.38
795.00	27195.46
796.00	27350.72
797.00	27422.50
798.00	27575.41
799.00	27571.51
800.00	27701.02
801.00	27775.14
802.00	27850.81
803.00	27997.49
804.00	28176.93
805.00	28313.46
806.00	28424.25
807.00	28476.52
808.00	28505.38
809.00	28553.76
810.00	28812.77
811.00	28958.67
812.00	29078.82
813.00	29030.44
814.00	29157.61
815.00	29192.72
816.00	29427.56
817.00	29614.02
818.00	29703.74
819.00	29630.40
820.00	29628.06
821.00	29858.21
822.00	29993.97
823.00	30026.73
824.00	30055.60
825.00	29908.15
826.00	29834.81
827.00	29837.93
828.00	30031.41
829.00	30223.34
830.00	30276.39
831.00	30360.65
832.00	30504.98
833.00	30512.00
834.00	30632.15
835.00	30732.01
836.00	30941.88
837.00	31068.27
838.00	31115.86
839.00	31250.83
840.00	31168.91
841.00	31275.80
842.00	31272.68
843.00	31495.03
844.00	31690.85
845.00	31878.88
846.00	31957.67
847.00	31884.34
848.00	31856.25
849.00	31984.20
850.00	32048.96
851.00	32165.20
852.00	32148.82
853.00	32027.89
854.00	32014.63
855.00	31943.63
856.00	32215.13
857.00	32361.81
858.00	32587.28
859.00	32651.25
860.00	32594.30
861.00	32546.71
862.00	32669.98
863.00	32749.56
864.00	32768.28
865.00	32948.50
866.00	33222.34
867.00	33532.86
868.00	33372.14
869.00	33474.34
870.00	33638.96
871.00	34025.15
872.00	33961.95
873.00	34110.97
874.00	34087.56
875.00	34192.89
876.00	34118.77
877.00	34051.67
878.00	34174.94
879.00	34107.85
880.00	34182.74
881.00	34178.84
882.00	34150.76
883.00	34157.78
884.00	34152.32
885.00	34203.81
886.00	34210.83
887.00	34182.74
888.00	34331.76
889.00	34553.33
890.00	34751.49
891.00	34815.47
892.00	34948.88
893.00	34972.28
894.00	35142.36
895.00	35168.89
896.00	35242.23
897.00	35166.55
898.00	34952.78
899.00	35110.38
900.00	35244.57
901.00	35658.06
902.00	35716.58
903.00	36026.31
904.00	36170.64
905.00	36347.74
906.00	36219.79
907.00	36034.89
908.00	36098.86
909.00	36547.47
910.00	36524.06
911.00	36459.30
912.00	35950.63
913.00	35902.26
914.00	35800.83
915.00	35957.65
916.00	36154.26
917.00	36226.81
918.00	36485.83
919.00	36503.78
920.00	36531.86
921.00	36497.53
922.00	36885.28
923.00	37046.78
924.00	37078.77
925.00	36797.12
926.00	36642.65
927.00	36514.70
928.00	36703.50
929.00	37099.05
930.00	37334.67
931.00	37474.32
932.00	37640.50
933.00	37620.99
934.00	37434.53
935.00	37290.20
936.00	37439.99
937.00	37510.21
938.00	37486.02
939.00	37513.33
940.00	37677.94
941.00	37608.51
942.00	37742.70
943.00	37754.40
944.00	37926.82
945.00	37684.19
946.00	37852.70
947.00	37892.49
948.00	38263.08
949.00	38225.63
950.00	38248.25
951.00	38137.47
952.00	38115.62
953.00	38146.05
954.00	38192.86
955.00	38320.81
956.00	38586.07
957.00	38621.96
958.00	38998.79
959.00	39201.63
960.00	39589.38
961.00	39403.70
962.00	39323.34
963.00	39317.88
964.00	39523.07
965.00	39581.58
966.00	39686.12
967.00	39867.91
968.00	40074.65
969.00	39991.17
970.00	40066.07
971.00	40286.08
972.00	40538.86
973.00	40421.05
974.00	40254.87
975.00	40179.98
976.00	40283.74
977.00	40250.19
978.00	40152.67
979.00	39932.66
980.00	39965.43
981.00	40186.22
982.00	40257.99
983.00	40379.70
984.00	40463.96
985.00	40632.48
986.00	40570.07
987.00	40399.21
988.00	40513.11
989.00	40416.37
990.00	40556.80
991.00	40492.83
992.00	40761.21
993.00	40737.02
994.00	40900.08
995.00	41001.50
996.00	41381.45
997.00	41599.90
998.00	41671.68
999.00	41582.74
1000.00	41642.03
1001.00	41846.44
1002.00	41829.27
1003.00	41713.81
1004.00	41753.60
1005.00	41863.60
1006.00	42036.02
1007.00	42009.50
1008.00	42248.23
1009.00	42138.22
1010.00	42273.20
1011.00	42094.53
1012.00	42370.72
1013.00	42175.67
1014.00	42287.24
1015.00	42121.06
1016.00	42387.10
1017.00	42601.65
1018.00	42827.90
1019.00	42782.65
1020.00	42743.64
1021.00	42618.03
1022.00	42601.65
1023.00	42530.65
1024.00	42625.06
1025.00	42870.81
1026.00	43072.88
1027.00	43235.94
1028.00	43393.53
1029.00	43401.33
1030.00	43369.35
1031.00	43452.05
1032.00	43643.19
1033.00	43998.95
1034.00	44020.80
1035.00	43942.00
1036.00	43757.88
1037.00	43501.98
1038.00	43574.53
1039.00	43612.76
1040.00	43887.39
1041.00	43934.98
1042.00	44079.31
1043.00	44172.93
1044.00	44358.61
1045.00	44493.58
1046.00	44441.31
1047.00	44195.56
1048.00	43946.68
1049.00	43888.95
1050.00	44171.37
1051.00	44579.40
1052.00	44950.77
1053.00	44990.56
1054.00	44887.57
1055.00	44797.07
1056.00	44797.85
1057.00	44889.13
1058.00	45036.59
1059.00	45072.48
1060.00	45176.24
1061.00	44964.03
1062.00	45042.05
1063.00	44914.10
1064.00	45080.28
1065.00	45208.23
1066.00	45470.37
1067.00	45645.13
1068.00	45494.55
1069.00	45318.23
1070.00	45134.11
1071.00	45270.64
1072.00	45584.27
1073.00	45858.90
1074.00	45936.91
1075.00	45925.99
1076.00	45885.42
1077.00	45881.52
1078.00	45841.73
1079.00	45756.69
1080.00	45783.22
1081.00	45822.23
1082.00	45924.43
1083.00	45986.85
1084.00	45896.34
1085.00	45869.04
1086.00	45879.96
1087.00	45996.99
1088.00	46040.68
1089.00	46162.39
1090.00	46220.12
1091.00	46332.46
1092.00	46296.58
1093.00	46272.39
1094.00	46449.49
1095.00	46689.01
1096.00	46818.52
1097.00	46817.74
1098.00	46771.71
1099.00	46667.94
1100.00	46483.82
1101.00	46488.50
1102.00	46877.81
1103.00	47184.42
1104.00	47331.09
1105.00	47265.56
1106.00	47256.20
1107.00	47249.95
1108.00	47276.48
1109.00	47525.36
1110.00	47554.22
1111.00	47482.45
1112.00	47288.96
1113.00	47125.91
1114.00	47150.87
1115.00	47132.15
1116.00	47260.10
1117.00	47340.46
1118.00	47354.50
1119.00	47404.43
1120.00	47320.17
1121.00	47306.13
1122.00	47480.89
1123.00	47429.40
1124.00	47375.56
1125.00	47074.41
1126.00	47256.20
1127.00	47488.69
1128.00	47594.79
1129.00	47511.31
1130.00	47527.70
1131.00	47673.59
1132.00	47641.60
1133.00	47494.93
1134.00	47471.53
1135.00	47649.41
1136.00	47708.70
1137.00	47675.93
1138.00	47676.71
1139.00	47735.23
1140.00	47862.40
1141.00	47960.70
1142.00	47995.81
1143.00	47984.88
1144.00	47957.58
1145.00	47910.77
1146.00	48016.09
1147.00	48027.79
1148.00	48205.67
1149.00	48146.38
1150.00	48161.20
1151.00	48030.13
1152.00	48029.35
1153.00	48062.12
1154.00	48123.75
1155.00	48105.03
1156.00	48149.50
1157.00	48137.02
1158.00	48159.64
1159.00	48250.92
1160.00	48467.03
1161.00	48657.40
1162.00	48697.19
1163.00	48738.54
1164.00	48768.96
1165.00	48809.53
1166.00	48744.78
1167.00	48587.96
1168.00	48489.66
1169.00	48385.11
1170.00	48307.10
1171.00	48225.96
1172.00	48165.10
1173.00	48038.72
1174.00	48106.59
1175.00	48349.23
1176.00	48605.12
1177.00	48448.31
1178.00	48268.09
1179.00	48236.88
1180.00	48515.40
1181.00	48739.32
1182.00	49065.43
1183.00	49098.20
1184.00	48989.75
1185.00	48882.09
1186.00	48816.55
1187.00	48948.40
1188.00	48893.01
1189.00	48921.88
1190.00	48727.61
1191.00	48925.78
1192.00	48780.67
1193.00	48811.09
1194.00	48584.84
1195.00	48775.20
1196.00	48959.33
1197.00	49045.15
1198.00	49009.26
1199.00	48978.05
1200.00	48982.73
1201.00	49018.62
1202.00	48873.51
1203.00	48960.11
1204.00	49020.18
1205.00	49327.57
1206.00	49432.89
1207.00	49531.20
1208.00	49462.54
1209.00	49257.35
1210.00	49116.92
1211.00	48909.39
1212.00	48942.94
1213.00	49057.63
1214.00	49037.34
1215.00	48975.71
1216.00	48857.12
1217.00	49017.84
1218.00	49138.77
1219.00	49210.54
1220.00	49237.85
1221.00	49066.21
1222.00	49050.61
1223.00	49092.74
1224.00	49183.24
1225.00	49087.28
1226.00	49102.10
1227.00	49163.73
1228.00	49162.95
1229.00	49135.65
1230.00	49196.50
1231.00	49478.92
1232.00	49623.26
1233.00	49725.46
1234.00	49569.43
1235.00	49606.09
1236.00	49445.38
1237.00	49570.21
1238.00	49539.00
1239.00	49817.52
1240.00	49927.53
1241.00	49976.68
1242.00	49978.24
1243.00	50007.11
1244.00	50028.17
1245.00	50101.51
1246.00	50124.13
1247.00	50297.33
