SpectraSuite Data File
++++++++++++++++++++++++++++++++++++
Date: Thu Nov 16 14:03:18 EST 2017
User: cheriyan
Dark Spectrum Present: No
Reference Spectrum Present: No
Number of Sampled Component Spectra: 1
Spectrometers: USB2+H05261
Integration Time (usec): 100000 (USB2+H05261)
Spectra Averaged: 1 (USB2+H05261)
Boxcar Smoothing: 1 (USB2+H05261)
Correct for Electrical Dark: No (USB2+H05261)
Strobe/Lamp Enabled: No (USB2+H05261)
Correct for Detector Non-linearity: No (USB2+H05261)
Correct for Stray Light: No (USB2+H05261)
Number of Pixels in Processed Spectrum: 2048
>>>>>Begin Processed Spectral Data<<<<<
0.00	416.62
1.00	416.62
2.00	363.56
3.00	308.95
4.00	266.82
5.00	264.48
6.00	291.79
7.00	257.46
8.00	252.78
9.00	205.19
10.00	220.79
11.00	220.79
12.00	235.61
13.00	232.49
14.00	230.15
15.00	222.35
16.00	219.23
17.00	226.25
18.00	242.64
19.00	268.38
20.00	297.25
21.00	303.49
22.00	325.33
23.00	347.18
24.00	488.39
25.00	630.38
26.00	788.76
27.00	856.64
28.00	859.76
29.00	870.68
30.00	837.91
31.00	853.52
32.00	841.81
33.00	868.34
34.00	866.00
35.00	882.38
36.00	897.21
37.00	939.34
38.00	950.26
39.00	945.58
40.00	959.62
41.00	957.28
42.00	976.78
43.00	965.08
44.00	957.28
45.00	951.04
46.00	954.16
47.00	992.39
48.00	1022.81
49.00	1050.12
50.00	1055.58
51.00	1033.74
52.00	1036.86
53.00	1046.22
54.00	1057.92
55.00	1037.64
56.00	1014.23
57.00	1018.91
58.00	1046.22
59.00	1036.08
60.00	1035.30
61.00	1030.62
62.00	1047.78
63.00	1048.56
64.00	1047.00
65.00	1061.04
66.00	1075.09
67.00	1064.16
68.00	1069.62
69.00	1059.48
70.00	1109.41
71.00	1117.22
72.00	1121.12
73.00	1094.59
74.00	1112.53
75.00	1128.14
76.00	1139.06
77.00	1126.58
78.00	1131.26
79.00	1154.66
80.00	1149.20
81.00	1157.78
82.00	1143.74
83.00	1153.88
84.00	1166.37
85.00	1187.43
86.00	1181.97
87.00	1193.67
88.00	1210.06
89.00	1195.23
90.00	1202.26
91.00	1192.11
92.00	1252.97
93.00	1228.78
94.00	1220.98
95.00	1200.69
96.00	1201.48
97.00	1216.30
98.00	1227.22
99.00	1277.15
100.00	1260.77
101.00	1256.09
102.00	1233.46
103.00	1233.46
104.00	1238.92
105.00	1232.68
106.00	1270.91
107.00	1286.51
108.00	1320.06
109.00	1316.16
110.00	1338.79
111.00	1337.23
112.00	1330.20
113.00	1333.33
114.00	1352.05
115.00	1380.14
116.00	1388.72
117.00	1369.99
118.00	1426.95
119.00	1417.58
120.00	1427.73
121.00	1389.50
122.00	1423.05
123.00	1442.55
124.00	1412.12
125.00	1399.64
126.00	1416.02
127.00	1434.75
128.00	1454.25
129.00	1510.43
130.00	1545.53
131.00	1572.84
132.00	1547.09
133.00	1549.43
134.00	1501.06
135.00	1500.28
136.00	1522.13
137.00	1593.12
138.00	1603.27
139.00	1600.93
140.00	1579.08
141.00	1602.49
142.00	1614.97
143.00	1650.08
144.00	1632.91
145.00	1639.94
146.00	1597.81
147.00	1621.21
148.00	1645.40
149.00	1685.19
150.00	1682.06
151.00	1681.28
152.00	1673.48
153.00	1689.87
154.00	1743.70
155.00	1794.41
156.00	1804.55
157.00	1778.81
158.00	1760.86
159.00	1806.11
160.00	1812.35
161.00	1817.82
162.00	1813.92
163.00	1840.44
164.00	1849.80
165.00	1849.02
166.00	1842.78
167.00	1862.29
168.00	1880.23
169.00	1886.47
170.00	1930.16
171.00	1915.34
172.00	1893.49
173.00	1900.52
174.00	1894.27
175.00	1912.22
176.00	1913.78
177.00	1931.72
178.00	2001.16
179.00	2014.42
180.00	2058.89
181.00	2022.22
182.00	2029.24
183.00	2001.16
184.00	2044.07
185.00	2007.40
186.00	2047.97
187.00	2055.77
188.00	2094.00
189.00	2101.02
190.00	2071.37
191.00	2092.44
192.00	2083.08
193.00	2119.75
194.00	2140.03
195.00	2197.76
196.00	2227.41
197.00	2218.83
198.00	2256.28
199.00	2275.78
200.00	2292.94
201.00	2257.06
202.00	2275.78
203.00	2283.58
204.00	2337.42
205.00	2339.76
206.00	2359.26
207.00	2333.51
208.00	2333.51
209.00	2397.49
210.00	2403.73
211.00	2459.90
212.00	2409.19
213.00	2390.47
214.00	2358.48
215.00	2400.61
216.00	2448.98
217.00	2470.05
218.00	2459.90
219.00	2479.41
220.00	2516.86
221.00	2512.17
222.00	2532.46
223.00	2498.91
224.00	2541.82
225.00	2547.28
226.00	2583.17
227.00	2596.43
228.00	2608.14
229.00	2569.13
230.00	2555.08
231.00	2586.29
232.00	2660.41
233.00	2681.47
234.00	2670.55
235.00	2673.67
236.00	2735.31
237.00	2779.00
238.00	2804.74
239.00	2821.91
240.00	2827.37
241.00	2856.23
242.00	2892.90
243.00	2935.81
244.00	2949.08
245.00	2952.98
246.00	2991.20
247.00	3038.02
248.00	3038.02
249.00	3041.92
250.00	3011.49
251.00	3056.74
252.00	3075.46
253.00	3105.89
254.00	3109.01
255.00	3109.79
256.00	3160.50
257.00	3203.41
258.00	3272.07
259.00	3268.17
260.00	3267.39
261.00	3300.16
262.00	3320.44
263.00	3341.50
264.00	3357.11
265.00	3405.48
266.00	3463.21
267.00	3458.53
268.00	3492.08
269.00	3499.10
270.00	3502.22
271.00	3555.27
272.00	3599.74
273.00	3638.75
274.00	3596.62
275.00	3575.56
276.00	3574.00
277.00	3580.24
278.00	3613.01
279.00	3636.41
280.00	3673.86
281.00	3653.58
282.00	3641.87
283.00	3619.25
284.00	3690.24
285.00	3747.98
286.00	3854.08
287.00	3854.08
288.00	3859.54
289.00	3813.51
290.00	3803.37
291.00	3801.81
292.00	3857.20
293.00	3946.14
294.00	4012.46
295.00	4055.37
296.00	4028.06
297.00	4053.03
298.00	4054.59
299.00	4014.02
300.00	3980.47
301.00	3921.96
302.00	3971.89
303.00	4000.76
304.00	4060.05
305.00	4084.23
306.00	4059.27
307.00	4063.95
308.00	4077.21
309.00	4063.17
310.00	4056.15
311.00	4091.26
312.00	4167.71
313.00	4209.06
314.00	4172.40
315.00	4182.54
316.00	4265.24
317.00	4311.27
318.00	4318.29
319.00	4248.07
320.00	4247.29
321.00	4235.59
322.00	4285.52
323.00	4350.28
324.00	4418.93
325.00	4447.80
326.00	4483.69
327.00	4560.92
328.00	4553.12
329.00	4560.92
330.00	4587.45
331.00	4580.43
332.00	4581.99
333.00	4511.77
334.00	4547.66
335.00	4609.29
336.00	4677.17
337.00	4728.66
338.00	4683.41
339.00	4750.51
340.00	4755.19
341.00	4843.35
342.00	4812.92
343.00	4868.31
344.00	4880.02
345.00	4908.88
346.00	4972.08
347.00	4981.44
348.00	4945.55
349.00	4886.26
350.00	4897.18
351.00	4955.69
352.00	5028.25
353.00	5047.76
354.00	5045.41
355.00	5038.39
356.00	5025.91
357.00	5104.71
358.00	5121.09
359.00	5223.30
360.00	5206.91
361.00	5242.02
362.00	5263.08
363.00	5341.10
364.00	5313.80
365.00	5280.25
366.00	5213.15
367.00	5315.36
368.00	5378.55
369.00	5423.80
370.00	5401.96
371.00	5412.88
372.00	5447.99
373.00	5460.47
374.00	5492.46
375.00	5498.70
376.00	5561.89
377.00	5550.97
378.00	5653.17
379.00	5682.04
380.00	5704.67
381.00	5782.68
382.00	5876.30
383.00	5996.45
384.00	5983.19
385.00	5997.23
386.00	5977.73
387.00	6079.93
388.00	6131.42
389.00	6203.98
390.00	6242.99
391.00	6212.56
392.00	6207.88
393.00	6167.31
394.00	6232.07
395.00	6390.44
396.00	6420.09
397.00	6524.63
398.00	6564.42
399.00	6659.60
400.00	6682.23
401.00	6665.07
402.00	6705.63
403.00	6768.05
404.00	6832.80
405.00	6899.90
406.00	6938.91
407.00	6914.72
408.00	6832.02
409.00	6789.89
410.00	6820.32
411.00	6941.25
412.00	6945.93
413.00	6931.11
414.00	6797.70
415.00	6808.62
416.00	6807.06
417.00	6959.19
418.00	7030.97
419.00	7102.75
420.00	7080.90
421.00	7082.46
422.00	7059.06
423.00	7085.58
424.00	7093.38
425.00	7158.92
426.00	7192.47
427.00	7244.74
428.00	7233.04
429.00	7191.69
430.00	7119.13
431.00	7176.08
432.00	7195.59
433.00	7278.29
434.00	7313.39
435.00	7408.58
436.00	7383.61
437.00	7382.83
438.00	7399.21
439.00	7393.75
440.00	7446.80
441.00	7431.98
442.00	7586.46
443.00	7634.05
444.00	7770.58
445.00	7754.97
446.00	7793.98
447.00	7779.16
448.00	7857.96
449.00	7861.08
450.00	7877.46
451.00	7910.23
452.00	7912.57
453.00	7936.76
454.00	7937.54
455.00	8003.85
456.00	8023.36
457.00	8054.56
458.00	8021.02
459.00	8057.68
460.00	8101.37
461.00	8169.25
462.00	8225.42
463.00	8265.99
464.00	8303.44
465.00	8328.41
466.00	8376.00
467.00	8515.65
468.00	8493.02
469.00	8599.13
470.00	8592.11
471.00	8773.11
472.00	8763.75
473.00	8741.90
474.00	8745.80
475.00	8766.09
476.00	8886.23
477.00	8942.41
478.00	8972.83
479.00	9004.82
480.00	8970.49
481.00	9068.80
482.00	9070.36
483.00	9172.56
484.00	9161.64
485.00	9172.56
486.00	9165.54
487.00	9206.89
488.00	9256.04
489.00	9340.30
490.00	9355.12
491.00	9440.94
492.00	9488.53
493.00	9495.55
494.00	9547.83
495.00	9500.23
496.00	9586.05
497.00	9610.24
498.00	9677.34
499.00	9717.12
500.00	9668.75
501.00	9724.15
502.00	9802.16
503.00	9884.08
504.00	9919.19
505.00	9928.55
506.00	9988.63
507.00	9995.65
508.00	10072.11
509.00	10100.97
510.00	10260.91
511.00	10301.48
512.00	10385.74
513.00	10343.61
514.00	10385.74
515.00	10459.07
516.00	10472.34
517.00	10473.90
518.00	10506.66
519.00	10558.94
520.00	10663.48
521.00	10621.35
522.00	10633.83
523.00	10619.01
524.00	10739.94
525.00	10830.44
526.00	10810.15
527.00	10839.80
528.00	10842.14
529.00	10934.98
530.00	10877.25
531.00	10977.11
532.00	11010.66
533.00	11056.69
534.00	11048.89
535.00	11108.96
536.00	11085.56
537.00	11064.49
538.00	11044.21
539.00	11144.85
540.00	11202.58
541.00	11221.31
542.00	11233.01
543.00	11274.36
544.00	11303.23
545.00	11416.35
546.00	11390.61
547.00	11527.92
548.00	11534.16
549.00	11701.12
550.00	11737.01
551.00	11819.71
552.00	11890.70
553.00	11847.01
554.00	11871.20
555.00	11854.03
556.00	12013.97
557.00	12247.24
558.00	12367.39
559.00	12429.02
560.00	12317.46
561.00	12344.77
562.00	12335.40
563.00	12454.77
564.00	12587.40
565.00	12808.97
566.00	12965.01
567.00	12940.04
568.00	12912.74
569.00	12825.36
570.00	12992.31
571.00	13072.67
572.00	13305.95
573.00	13380.06
574.00	13454.18
575.00	13424.53
576.00	13582.91
577.00	13595.39
578.00	13760.79
579.00	13692.13
580.00	13873.92
581.00	13929.31
582.00	14076.76
583.00	14170.38
584.00	14319.40
585.00	14491.04
586.00	14625.23
587.00	14608.84
588.00	14600.26
589.00	14677.50
590.00	14792.19
591.00	14881.13
592.00	14967.73
593.00	15173.69
594.00	15359.38
595.00	15415.55
596.00	15471.72
597.00	15673.79
598.00	15976.50
599.00	16095.86
600.00	16145.80
601.00	16043.59
602.00	16235.52
603.00	16387.65
604.00	16736.39
605.00	16942.36
606.00	17056.26
607.00	17106.20
608.00	17243.51
609.00	17296.56
610.00	17447.13
611.00	17383.94
612.00	17607.85
613.00	17796.65
614.00	18082.98
615.00	18222.63
616.00	18317.03
617.00	18342.78
618.00	18358.38
619.00	18538.60
620.00	18640.03
621.00	18974.72
622.00	19141.68
623.00	19438.93
624.00	19486.52
625.00	19598.87
626.00	19665.18
627.00	19772.85
628.00	19838.38
629.00	20032.65
630.00	20329.89
631.00	20478.91
632.00	20517.14
633.00	20648.21
634.00	20833.89
635.00	21145.96
636.00	21278.59
637.00	21653.86
638.00	21750.60
639.00	21936.28
640.00	21873.87
641.00	22123.52
642.00	22274.88
643.00	22525.32
644.00	22701.64
645.00	22850.65
646.00	22860.79
647.00	22847.53
648.00	23097.19
649.00	23370.25
650.00	23637.85
651.00	23788.42
652.00	23867.22
653.00	24078.65
654.00	24272.92
655.00	24551.44
656.00	24677.83
657.00	24751.17
658.00	24833.86
659.00	25103.03
660.00	25458.01
661.00	25717.03
662.00	25894.13
663.00	25954.98
664.00	26037.68
665.00	26114.14
666.00	26180.45
667.00	26352.87
668.00	26527.63
669.00	26776.51
670.00	27000.42
671.00	27181.42
672.00	27249.30
673.00	27457.60
674.00	27591.02
675.00	27678.40
676.00	27626.90
677.00	27729.11
678.00	28072.39
679.00	28425.81
680.00	28746.46
681.00	28920.44
682.00	29106.12
683.00	29228.61
684.00	29447.84
685.00	29620.26
686.00	29765.37
687.00	29979.92
688.00	29953.40
689.00	30121.91
690.00	30232.70
691.00	30512.78
692.00	30586.90
693.00	30672.72
694.00	30930.96
695.00	31207.14
696.00	31364.74
697.00	31578.51
698.00	31891.36
699.00	32028.67
700.00	32007.61
701.00	32098.89
702.00	32271.31
703.00	32647.35
704.00	32723.03
705.00	33043.68
706.00	33228.59
707.00	33595.27
708.00	33779.39
709.00	33842.59
710.00	33807.48
711.00	33992.38
712.00	34140.61
713.00	34428.50
714.00	34455.03
715.00	34564.25
716.00	34598.58
717.00	34764.76
718.00	34828.73
719.00	34884.12
720.00	34931.72
721.00	35121.30
722.00	35416.21
723.00	35651.82
724.00	35804.74
725.00	35825.02
726.00	35863.25
727.00	36036.45
728.00	36074.68
729.00	36227.59
730.00	36333.70
731.00	36514.70
732.00	36543.56
733.00	36628.60
734.00	36710.52
735.00	36763.57
736.00	36935.21
737.00	37177.85
738.00	37459.49
739.00	37546.87
740.00	37542.19
741.00	37733.34
742.00	37741.14
743.00	37936.96
744.00	37924.48
745.00	38113.28
746.00	38195.98
747.00	38462.02
748.00	38700.76
749.00	38973.82
750.00	39007.37
751.00	39115.81
752.00	39346.75
753.00	39427.10
754.00	39569.88
755.00	39484.06
756.00	39764.92
757.00	39775.06
758.00	39920.96
759.00	39948.26
760.00	40130.83
761.00	40229.91
762.00	40400.77
763.00	40685.53
764.00	40624.68
765.00	40705.04
766.00	40839.23
767.00	41135.70
768.00	41304.21
769.00	41301.87
770.00	41625.65
771.00	41922.90
772.00	42180.35
773.00	42266.95
774.00	42301.28
775.00	42406.61
776.00	42510.37
777.00	42788.11
778.00	42965.21
779.00	43118.13
780.00	42981.60
781.00	43119.69
782.00	43233.60
783.00	43385.73
784.00	43290.55
785.00	43380.27
786.00	43593.26
787.00	43966.96
788.00	44212.72
789.00	44370.32
790.00	44310.24
791.00	44536.49
792.00	44556.00
793.00	44889.91
794.00	44881.33
795.00	44996.80
796.00	45091.20
797.00	45118.51
798.00	45414.19
799.00	45367.38
800.00	45517.96
801.00	45553.85
802.00	45759.81
803.00	45901.03
804.00	46086.71
805.00	46330.12
806.00	46563.40
807.00	46497.08
808.00	46646.10
809.00	46678.86
810.00	47085.34
811.00	47115.76
812.00	47200.02
813.00	47192.22
814.00	47347.48
815.00	47459.04
816.00	47653.31
817.00	47558.91
818.00	47622.88
819.00	47480.11
820.00	47645.51
821.00	47839.77
822.00	48058.22
823.00	47984.88
824.00	48034.03
825.00	48151.06
826.00	48565.34
827.00	48779.10
828.00	48878.19
829.00	48789.25
830.00	48901.59
831.00	48973.37
832.00	49105.22
833.00	48964.79
834.00	49003.80
835.00	49130.19
836.00	49365.02
837.00	49463.32
838.00	49612.34
839.00	49740.28
840.00	49897.88
841.00	50039.87
842.00	50272.37
843.00	50563.37
844.00	50727.99
845.00	50823.17
846.00	50884.81
847.00	50818.49
848.00	50844.24
849.00	50890.27
850.00	50982.33
851.00	51043.18
852.00	50991.69
853.00	51105.60
854.00	51189.86
855.00	51419.23
856.00	51463.70
857.00	51401.28
858.00	51502.71
859.00	51647.04
860.00	51817.90
861.00	51650.16
862.00	51710.24
863.00	51836.62
864.00	51924.78
865.00	51971.60
866.00	52080.04
867.00	52279.77
868.00	52441.26
869.00	52541.91
870.00	52621.48
871.00	52632.41
872.00	52594.96
873.00	52658.15
874.00	52807.95
875.00	52850.08
876.00	52943.70
877.00	52992.85
878.00	53160.59
879.00	53268.25
880.00	53315.06
881.00	53304.14
882.00	53252.65
883.00	53211.30
884.00	53113.00
885.00	53111.44
886.00	53173.85
887.00	53371.24
888.00	53528.83
889.00	53636.50
890.00	53637.28
891.00	53637.28
892.00	53677.85
893.00	53665.36
894.00	53752.74
895.00	53785.51
896.00	53962.61
897.00	53975.09
898.00	54024.25
899.00	54005.52
900.00	54208.37
901.00	54330.86
902.00	54436.96
903.00	54348.80
904.00	54356.60
905.00	54615.62
906.00	54723.29
907.00	54844.21
908.00	54652.29
909.00	54856.70
910.00	54735.77
911.00	54823.15
912.00	54636.69
913.00	54709.24
914.00	54641.37
915.00	54684.28
916.00	54685.06
917.00	54651.51
918.00	54706.90
919.00	54630.44
920.00	54865.28
921.00	54949.54
922.00	55167.21
923.00	55090.75
924.00	55065.78
925.00	55224.94
926.00	55437.15
927.00	55569.00
928.00	55508.14
929.00	55590.06
930.00	55593.96
931.00	55661.84
932.00	55700.07
933.00	55781.99
934.00	55838.16
935.00	55725.81
936.00	55768.72
937.00	55875.61
938.00	55907.60
939.00	55923.98
940.00	55861.57
941.00	55918.52
942.00	56047.25
943.00	56246.97
944.00	56392.09
945.00	56400.67
946.00	56404.57
947.00	56422.51
948.00	56494.29
949.00	56502.87
950.00	56567.63
951.00	56603.52
952.00	56614.44
953.00	56617.56
954.00	56676.85
955.00	56709.62
956.00	56756.43
957.00	56799.34
958.00	56926.51
959.00	57029.49
960.00	56967.86
961.00	56904.66
962.00	56988.14
963.00	57146.52
964.00	57272.91
965.00	57237.80
966.00	57336.10
967.00	57429.72
968.00	57506.18
969.00	57411.00
970.00	57468.73
971.00	57570.94
972.00	57737.90
973.00	57800.31
974.00	57808.11
975.00	57888.47
976.00	57817.47
977.00	57847.90
978.00	57766.76
979.00	57777.68
980.00	57755.84
981.00	57934.50
982.00	57971.95
983.00	58053.09
984.00	57982.87
985.00	58078.05
986.00	57983.65
987.00	57872.09
988.00	57856.48
989.00	57976.63
990.00	58172.45
991.00	58163.09
992.00	58271.54
993.00	58226.29
994.00	58523.54
995.00	58638.22
996.00	58873.84
997.00	58850.43
998.00	58910.50
999.00	58920.65
1000.00	58934.69
1001.00	58897.24
1002.00	58840.29
1003.00	58791.92
1004.00	58806.74
1005.00	58759.93
1006.00	58785.68
1007.00	58862.13
1008.00	59022.85
1009.00	58938.59
1010.00	58922.99
1011.00	58826.24
1012.00	59036.89
1013.00	59111.79
1014.00	59259.24
1015.00	59256.90
1016.00	59231.94
1017.00	59334.14
1018.00	59388.75
1019.00	59494.86
1020.00	59419.18
1021.00	59522.94
1022.00	59529.19
1023.00	59540.89
1024.00	59430.10
1025.00	59496.42
1026.00	59678.98
1027.00	59811.61
1028.00	59869.34
1029.00	59799.13
1030.00	59753.88
1031.00	59810.83
1032.00	59855.30
1033.00	59994.17
1034.00	60020.70
1035.00	60083.89
1036.00	60142.41
1037.00	60091.69
1038.00	60134.60
1039.00	60072.19
1040.00	60119.78
1041.00	60175.95
1042.00	60228.23
1043.00	60296.10
1044.00	60344.47
1045.00	60520.79
1046.00	60603.49
1047.00	60577.75
1048.00	60539.52
1049.00	60460.72
1050.00	60497.39
1051.00	60492.71
1052.00	60615.97
1053.00	60681.51
1054.00	60655.76
1055.00	60553.56
1056.00	60495.83
1057.00	60565.26
1058.00	60732.22
1059.00	60818.82
1060.00	60955.35
1061.00	60970.96
1062.00	61119.19
1063.00	61122.31
1064.00	61098.90
1065.00	61023.23
1066.00	60970.18
1067.00	60985.00
1068.00	60983.44
1069.00	60969.40
1070.00	61006.06
1071.00	61068.48
1072.00	61170.68
1073.00	61233.88
1074.00	61260.40
1075.00	61315.79
1076.00	61355.58
1077.00	61418.00
1078.00	61487.43
1079.00	61503.82
1080.00	61521.76
1081.00	61520.98
1082.00	61630.21
1083.00	61699.64
1084.00	61701.98
1085.00	61580.27
1086.00	61502.26
1087.00	61498.36
1088.00	61524.10
1089.00	61617.72
1090.00	61641.13
1091.00	61755.82
1092.00	61788.58
1093.00	61784.68
1094.00	61809.65
1095.00	61799.51
1096.00	61886.10
1097.00	61946.96
1098.00	61995.33
1099.00	61961.00
1100.00	61987.53
1101.00	61950.86
1102.00	61993.77
1103.00	61928.23
1104.00	62000.79
1105.00	62082.71
1106.00	62174.77
1107.00	62185.69
1108.00	62234.06
1109.00	62197.40
1110.00	62250.45
1111.00	62116.26
1112.00	62156.05
1113.00	62133.42
1114.00	62234.84
1115.00	62188.81
1116.00	62128.74
1117.00	62171.65
1118.00	62182.57
1119.00	62265.27
1120.00	62194.28
1121.00	62247.33
1122.00	62361.23
1123.00	62457.98
1124.00	62489.96
1125.00	62379.18
1126.00	62340.95
1127.00	62391.66
1128.00	62496.98
1129.00	62522.73
1130.00	62457.98
1131.00	62370.60
1132.00	62411.16
1133.00	62472.02
1134.00	62424.43
1135.00	62347.97
1136.00	62394.00
1137.00	62507.13
1138.00	62606.21
1139.00	62621.81
1140.00	62680.33
1141.00	62723.24
1142.00	62703.73
1143.00	62702.17
1144.00	62674.09
1145.00	62704.51
1146.00	62693.59
1147.00	62741.96
1148.00	62791.89
1149.00	62824.66
1150.00	62718.56
1151.00	62651.46
1152.00	62599.97
1153.00	62635.08
1154.00	62538.33
1155.00	62486.06
1156.00	62468.12
1157.00	62571.88
1158.00	62674.87
1159.00	62774.73
1160.00	62844.16
1161.00	62903.46
1162.00	62921.40
1163.00	62847.28
1164.00	62756.00
1165.00	62747.42
1166.00	62799.69
1167.00	62896.44
1168.00	63004.88
1169.00	63074.32
1170.00	63044.67
1171.00	62941.69
1172.00	62875.37
1173.00	62839.48
1174.00	62821.54
1175.00	62817.64
1176.00	62829.34
1177.00	62860.55
1178.00	62894.10
1179.00	62924.52
1180.00	62951.05
1181.00	62926.08
1182.00	62894.10
1183.00	62876.93
1184.00	62866.01
1185.00	62898.00
1186.00	62950.27
1187.00	63086.02
1188.00	63160.14
1189.00	63159.36
1190.00	63039.21
1191.00	62965.09
1192.00	62865.23
1193.00	62836.36
1194.00	62802.03
1195.00	62921.40
1196.00	62981.48
1197.00	62982.26
1198.00	62954.95
1199.00	63020.48
1200.00	63086.80
1201.00	63115.67
1202.00	63046.23
1203.00	63051.69
1204.00	63029.85
1205.00	63015.02
1206.00	62979.14
1207.00	62979.14
1208.00	63039.99
1209.00	63125.81
1210.00	63196.80
1211.00	63245.18
1212.00	63306.81
1213.00	63294.33
1214.00	63210.85
1215.00	63099.28
1216.00	63003.32
1217.00	63003.32
1218.00	63046.23
1219.00	63130.49
1220.00	63227.23
1221.00	63160.92
1222.00	63108.64
1223.00	63116.45
1224.00	63133.61
1225.00	63206.95
1226.00	63146.09
1227.00	63149.99
1228.00	63016.58
1229.00	62975.23
1230.00	63024.39
1231.00	63116.45
1232.00	63157.80
1233.00	63215.53
1234.00	63219.43
1235.00	63261.56
1236.00	63324.75
1237.00	63359.86
