SpectraSuite Data File
++++++++++++++++++++++++++++++++++++
Date: Thu Nov 16 14:01:07 EST 2017
User: cheriyan
Dark Spectrum Present: No
Reference Spectrum Present: No
Number of Sampled Component Spectra: 1
Spectrometers: USB2+H05261
Integration Time (usec): 100000 (USB2+H05261)
Spectra Averaged: 1 (USB2+H05261)
Boxcar Smoothing: 1 (USB2+H05261)
Correct for Electrical Dark: No (USB2+H05261)
Strobe/Lamp Enabled: No (USB2+H05261)
Correct for Detector Non-linearity: No (USB2+H05261)
Correct for Stray Light: No (USB2+H05261)
Number of Pixels in Processed Spectrum: 2048
>>>>>Begin Processed Spectral Data<<<<<
0.00	285.55
1.00	285.55
2.00	293.35
3.00	262.14
4.00	257.46
5.00	236.39
6.00	263.70
7.00	273.06
8.00	274.62
9.00	255.90
10.00	237.17
11.00	251.22
12.00	265.26
13.00	267.60
14.00	236.39
15.00	234.05
16.00	218.45
17.00	230.15
18.00	226.25
19.00	239.51
20.00	266.82
21.00	299.59
22.00	333.14
23.00	390.09
24.00	532.86
25.00	696.70
26.00	802.80
27.00	825.43
28.00	831.67
29.00	844.15
30.00	841.03
31.00	841.03
32.00	861.32
33.00	851.95
34.00	854.30
35.00	840.25
36.00	876.92
37.00	889.40
38.00	905.01
39.00	923.73
40.00	943.24
41.00	961.18
42.00	951.04
43.00	936.21
44.00	930.75
45.00	942.46
46.00	985.37
47.00	1011.11
48.00	1000.19
49.00	973.66
50.00	960.40
51.00	973.66
52.00	993.95
53.00	997.85
54.00	997.07
55.00	983.02
56.00	979.12
57.00	982.24
58.00	994.73
59.00	984.59
60.00	1004.09
61.00	997.85
62.00	1016.57
63.00	1028.28
64.00	1053.24
65.00	1081.33
66.00	1091.47
67.00	1088.35
68.00	1057.92
69.00	1042.32
70.00	1061.82
71.00	1088.35
72.00	1077.43
73.00	1025.93
74.00	1013.45
75.00	1015.79
76.00	1065.72
77.00	1070.40
78.00	1080.55
79.00	1054.02
80.00	1075.09
81.00	1128.14
82.00	1128.14
83.00	1147.64
84.00	1101.61
85.00	1125.80
86.00	1098.49
87.00	1116.44
88.00	1148.42
89.00	1160.13
90.00	1185.09
91.00	1190.55
92.00	1219.42
93.00	1228.00
94.00	1228.00
95.00	1228.00
96.00	1215.52
97.00	1199.91
98.00	1188.99
99.00	1168.71
100.00	1171.05
101.00	1210.84
102.00	1248.29
103.00	1277.93
104.00	1274.03
105.00	1290.42
106.00	1288.07
107.00	1299.78
108.00	1258.43
109.00	1249.07
110.00	1260.77
111.00	1324.74
112.00	1323.96
113.00	1301.34
114.00	1272.47
115.00	1300.56
116.00	1335.67
117.00	1345.03
118.00	1337.23
119.00	1341.13
120.00	1380.14
121.00	1370.77
122.00	1368.43
123.00	1371.55
124.00	1460.49
125.00	1494.04
126.00	1473.76
127.00	1432.41
128.00	1431.63
129.00	1471.42
130.00	1497.94
131.00	1477.66
132.00	1485.46
133.00	1476.88
134.00	1473.76
135.00	1466.74
136.00	1481.56
137.00	1569.72
138.00	1591.56
139.00	1579.08
140.00	1502.62
141.00	1504.96
142.00	1536.95
143.00	1601.71
144.00	1589.22
145.00	1583.76
146.00	1547.87
147.00	1598.59
148.00	1602.49
149.00	1673.48
150.00	1661.00
151.00	1693.77
152.00	1653.20
153.00	1672.70
154.00	1693.77
155.00	1683.63
156.00	1672.70
157.00	1687.53
158.00	1707.03
159.00	1732.78
160.00	1732.78
161.00	1767.10
162.00	1802.99
163.00	1820.16
164.00	1843.56
165.00	1805.33
166.00	1788.95
167.00	1797.53
168.00	1817.04
169.00	1871.65
170.00	1879.45
171.00	1927.04
172.00	1913.00
173.00	1927.82
174.00	1893.49
175.00	1887.25
176.00	1870.09
177.00	1914.56
178.00	1941.08
179.00	1965.27
180.00	1981.65
181.00	1975.41
182.00	1993.36
183.00	1995.70
184.00	2027.68
185.00	1985.55
186.00	1986.33
187.00	1994.14
188.00	2035.49
189.00	2013.64
190.00	2033.15
191.00	2044.07
192.00	2071.37
193.00	2059.67
194.00	2070.59
195.00	2091.66
196.00	2097.90
197.00	2122.87
198.00	2145.49
199.00	2162.66
200.00	2151.73
201.00	2154.85
202.00	2201.66
203.00	2218.83
204.00	2250.04
205.00	2216.49
206.00	2248.47
207.00	2265.64
208.00	2290.60
209.00	2296.07
210.00	2290.60
211.00	2289.82
212.00	2314.79
213.00	2330.39
214.00	2350.68
215.00	2346.78
216.00	2368.62
217.00	2410.75
218.00	2396.71
219.00	2345.22
220.00	2324.93
221.00	2344.44
222.00	2392.81
223.00	2408.41
224.00	2438.06
225.00	2456.00
226.00	2506.71
227.00	2546.50
228.00	2576.93
229.00	2569.91
230.00	2557.43
231.00	2562.11
232.00	2551.18
233.00	2543.38
234.00	2557.43
235.00	2604.24
236.00	2675.23
237.00	2717.36
238.00	2745.45
239.00	2754.03
240.00	2771.19
241.00	2775.88
242.00	2819.57
243.00	2807.86
244.00	2850.77
245.00	2848.43
246.00	2896.80
247.00	2911.63
248.00	2934.25
249.00	2942.83
250.00	2922.55
251.00	2923.33
252.00	2916.31
253.00	2956.10
254.00	2977.94
255.00	3031.77
256.00	3066.88
257.00	3129.30
258.00	3169.09
259.00	3166.74
260.00	3136.32
261.00	3129.30
262.00	3173.77
263.00	3228.38
264.00	3230.72
265.00	3264.27
266.00	3243.98
267.00	3326.68
268.00	3350.87
269.00	3446.05
270.00	3435.13
271.00	3433.57
272.00	3405.48
273.00	3464.77
274.00	3486.62
275.00	3494.42
276.00	3484.28
277.00	3490.52
278.00	3492.08
279.00	3502.22
280.00	3538.89
281.00	3620.03
282.00	3669.96
283.00	3708.19
284.00	3709.75
285.00	3692.59
286.00	3663.72
287.00	3656.70
288.00	3684.78
289.00	3712.87
290.00	3728.47
291.00	3719.89
292.00	3707.41
293.00	3755.00
294.00	3810.39
295.00	3872.03
296.00	3880.61
297.00	3837.70
298.00	3838.48
299.00	3815.07
300.00	3844.72
301.00	3779.97
302.00	3829.12
303.00	3855.64
304.00	3953.16
305.00	3942.24
306.00	3921.96
307.00	3914.16
308.00	3913.38
309.00	3944.58
310.00	3982.03
311.00	3997.64
312.00	3979.69
313.00	3943.80
314.00	3953.94
315.00	3945.36
316.00	3999.20
317.00	4010.12
318.00	4066.29
319.00	4024.16
320.00	4064.73
321.00	4118.56
322.00	4212.96
323.00	4253.53
324.00	4301.90
325.00	4317.51
326.00	4347.94
327.00	4356.52
328.00	4357.30
329.00	4355.74
330.00	4336.23
331.00	4322.19
332.00	4316.73
333.00	4372.12
334.00	4414.25
335.00	4492.27
336.00	4496.95
337.00	4567.17
338.00	4539.08
339.00	4607.73
340.00	4626.46
341.00	4692.77
342.00	4629.58
343.00	4628.02
344.00	4634.26
345.00	4716.18
346.00	4759.87
347.00	4752.85
348.00	4761.43
349.00	4766.89
350.00	4807.46
351.00	4841.01
352.00	4865.19
353.00	4907.32
354.00	4940.09
355.00	4947.11
356.00	4951.01
357.00	4965.06
358.00	5029.81
359.00	5046.20
360.00	5033.71
361.00	5061.02
362.00	5142.94
363.00	5181.95
364.00	5154.64
365.00	5121.09
366.00	5137.48
367.00	5211.59
368.00	5291.17
369.00	5315.36
370.00	5266.21
371.00	5195.99
372.00	5188.97
373.00	5247.48
374.00	5281.03
375.00	5350.46
376.00	5380.89
377.00	5450.33
378.00	5502.60
379.00	5533.81
380.00	5585.30
381.00	5573.60
382.00	5606.36
383.00	5672.68
384.00	5742.89
385.00	5772.54
386.00	5750.70
387.00	5754.60
388.00	5807.65
389.00	5925.46
390.00	5980.07
391.00	6026.88
392.00	5996.45
393.00	6080.71
394.00	6117.38
395.00	6164.19
396.00	6209.44
397.00	6221.92
398.00	6272.64
399.00	6329.59
400.00	6403.71
401.00	6456.76
402.00	6480.16
403.00	6552.72
404.00	6580.03
405.00	6583.93
406.00	6577.69
407.00	6586.27
408.00	6531.66
409.00	6491.09
410.00	6528.53
411.00	6661.94
412.00	6771.95
413.00	6719.68
414.00	6690.03
415.00	6665.07
416.00	6764.93
417.00	6750.11
418.00	6789.11
419.00	6788.33
420.00	6845.29
421.00	6855.43
422.00	6871.81
423.00	6898.34
424.00	6921.74
425.00	6966.21
426.00	6974.02
427.00	6939.69
428.00	6906.14
429.00	6824.22
430.00	6911.60
431.00	6927.99
432.00	6995.86
433.00	6930.33
434.00	6963.09
435.00	7034.09
436.00	7135.51
437.00	7166.72
438.00	7201.83
439.00	7211.19
440.00	7220.55
441.00	7314.17
442.00	7426.52
443.00	7514.68
444.00	7486.59
445.00	7446.02
446.00	7478.01
447.00	7549.01
448.00	7593.48
449.00	7574.75
450.00	7527.16
451.00	7576.31
452.00	7616.10
453.00	7721.43
454.00	7716.75
455.00	7792.42
456.00	7738.59
457.00	7774.48
458.00	7751.07
459.00	7793.98
460.00	7820.51
461.00	7896.19
462.00	7954.70
463.00	7934.42
464.00	7957.82
465.00	8013.21
466.00	8118.54
467.00	8113.86
468.00	8138.82
469.00	8140.38
470.00	8240.25
471.00	8292.52
472.00	8373.66
473.00	8367.42
474.00	8397.06
475.00	8436.85
476.00	8535.93
477.00	8628.78
478.00	8697.43
479.00	8725.52
480.00	8687.29
481.00	8707.57
482.00	8709.91
483.00	8727.08
484.00	8776.23
485.00	8791.83
486.00	8902.62
487.00	8863.61
488.00	8961.13
489.00	9021.20
490.00	9132.77
491.00	9099.22
492.00	9125.75
493.00	9128.09
494.00	9227.95
495.00	9161.64
496.00	9094.54
497.00	9121.07
498.00	9186.60
499.00	9405.83
500.00	9396.47
501.00	9441.72
502.00	9449.52
503.00	9464.35
504.00	9578.25
505.00	9548.61
506.00	9605.56
507.00	9623.50
508.00	9791.24
509.00	9880.18
510.00	9884.08
511.00	9905.93
512.00	10054.16
513.00	10088.49
514.00	10074.45
515.00	9996.43
516.00	10067.42
517.00	10053.38
518.00	10114.24
519.00	10122.04
520.00	10192.25
521.00	10189.91
522.00	10182.89
523.00	10247.65
524.00	10305.38
525.00	10485.60
526.00	10433.33
527.00	10436.45
528.00	10352.19
529.00	10394.32
530.00	10439.57
531.00	10503.54
532.00	10558.94
533.00	10615.11
534.00	10675.18
535.00	10750.08
536.00	10664.26
537.00	10581.56
538.00	10601.85
539.00	10706.39
540.00	10847.60
541.00	10919.38
542.00	10885.83
543.00	10920.94
544.00	10932.64
545.00	11104.28
546.00	11087.90
547.00	11101.16
548.00	11151.09
549.00	11311.81
550.00	11391.39
551.00	11481.89
552.00	11495.15
553.00	11580.97
554.00	11583.31
555.00	11619.98
556.00	11575.51
557.00	11541.18
558.00	11612.18
559.00	11791.62
560.00	11900.84
561.00	11880.56
562.00	11865.74
563.00	12016.31
564.00	12140.36
565.00	12293.27
566.00	12431.37
567.00	12482.08
568.00	12482.08
569.00	12326.82
570.00	12439.17
571.00	12523.43
572.00	12671.66
573.00	12729.39
574.00	12720.81
575.00	12833.16
576.00	13012.60
577.00	13202.18
578.00	13383.96
579.00	13345.73
580.00	13444.04
581.00	13446.38
582.00	13628.16
583.00	13766.25
584.00	13936.33
585.00	13983.92
586.00	14057.26
587.00	14020.59
588.00	13986.26
589.00	14064.28
590.00	14178.97
591.00	14390.39
592.00	14469.97
593.00	14686.08
594.00	14820.27
595.00	14930.28
596.00	15037.94
597.00	15143.27
598.00	15367.18
599.00	15418.67
600.00	15573.92
601.00	15616.05
602.00	15765.85
603.00	15758.83
604.00	15986.64
605.00	16250.34
606.00	16443.82
607.00	16528.08
608.00	16557.73
609.00	16712.21
610.00	16692.70
611.00	16675.54
612.00	16763.70
613.00	16877.60
614.00	17122.58
615.00	17244.29
616.00	17411.25
617.00	17442.45
618.00	17603.95
619.00	17784.17
620.00	18094.68
621.00	18360.72
622.00	18546.41
623.00	18717.26
624.00	18656.41
625.00	18687.62
626.00	18722.73
627.00	18931.03
628.00	19045.72
629.00	19229.06
630.00	19546.59
631.00	19858.67
632.00	19827.46
633.00	20040.45
634.00	20273.72
635.00	20511.67
636.00	20595.93
637.00	20677.85
638.00	20977.44
639.00	21000.85
640.00	21098.37
641.00	21112.41
642.00	21294.19
643.00	21395.62
644.00	21681.94
645.00	21842.66
646.00	22029.90
647.00	22117.28
648.00	22214.02
649.00	22443.40
650.00	22675.89
651.00	23101.87
652.00	23236.06
653.00	23350.74
654.00	23327.34
655.00	23520.04
656.00	23696.36
657.00	23779.84
658.00	23902.33
659.00	24162.91
660.00	24561.58
661.00	24726.20
662.00	24813.58
663.00	24851.03
664.00	25123.31
665.00	25261.40
666.00	25445.52
667.00	25509.50
668.00	25595.32
669.00	25657.73
670.00	25667.88
671.00	25957.32
672.00	26137.54
673.00	26346.63
674.00	26529.97
675.00	26748.42
676.00	27013.68
677.00	27096.38
678.00	27219.65
679.00	27363.98
680.00	27484.13
681.00	27696.34
682.00	27949.90
683.00	28126.22
684.00	28329.06
685.00	28418.00
686.00	28633.33
687.00	28847.88
688.00	28872.07
689.00	29066.33
690.00	29120.17
691.00	29426.78
692.00	29382.31
693.00	29596.85
694.00	29901.90
695.00	30252.98
696.00	30335.68
697.00	30387.18
698.00	30590.02
699.00	30823.30
700.00	30898.19
701.00	31100.26
702.00	31403.75
703.00	31596.45
704.00	31746.25
705.00	31853.13
706.00	32134.78
707.00	32233.86
708.00	32442.17
709.00	32639.55
710.00	32892.33
711.00	32991.41
712.00	33137.30
713.00	33047.58
714.00	33088.93
715.00	33156.81
716.00	33287.88
717.00	33610.87
718.00	33624.14
719.00	33785.63
720.00	33720.88
721.00	33820.74
722.00	34000.18
723.00	34144.52
724.00	34440.20
725.00	34600.92
726.00	34690.64
727.00	34825.61
728.00	34891.15
729.00	35118.96
730.00	35150.95
731.00	35205.56
732.00	35243.79
733.00	35453.65
734.00	35595.65
735.00	35607.35
736.00	35721.26
737.00	35909.28
738.00	36140.99
739.00	36119.15
740.00	36307.95
741.00	36364.90
742.00	36552.93
743.00	36387.53
744.00	36614.56
745.00	36783.86
746.00	37262.11
747.00	37443.11
748.00	37645.96
749.00	37658.44
750.00	37724.75
751.00	37676.38
752.00	37943.98
753.00	38007.96
754.00	38256.84
755.00	38288.04
756.00	38548.62
757.00	38703.10
758.00	38883.32
759.00	38796.72
760.00	38692.96
761.00	38741.33
762.00	39051.06
763.00	39370.15
764.00	39398.24
765.00	39377.95
766.00	39529.31
767.00	39841.38
768.00	40005.22
769.00	40040.32
770.00	40276.72
771.00	40389.06
772.00	40518.57
773.00	40569.29
774.00	40668.37
775.00	40836.89
776.00	40871.21
777.00	41130.23
778.00	41347.12
779.00	41513.30
780.00	41560.11
781.00	41759.84
782.00	41897.15
783.00	42079.71
784.00	42189.72
785.00	42374.62
786.00	42525.19
787.00	42559.52
788.00	42763.93
789.00	42930.89
790.00	42846.63
791.00	42779.53
792.00	42943.37
793.00	43239.06
794.00	43469.99
795.00	43452.05
796.00	43799.22
797.00	43867.10
798.00	44083.21
799.00	44116.76
800.00	44279.03
801.00	44372.66
802.00	44456.14
803.00	44433.51
804.00	44695.65
805.00	44777.57
806.00	44903.96
807.00	44843.88
808.00	45054.53
809.00	45199.65
810.00	45278.44
811.00	45316.67
812.00	45544.48
813.00	45703.64
814.00	45734.85
815.00	45897.13
816.00	46138.98
817.00	46186.57
818.00	46138.98
819.00	46105.43
820.00	46279.41
821.00	46432.33
822.00	46474.46
823.00	46498.64
824.00	46621.13
825.00	46749.86
826.00	46834.90
827.00	46994.06
828.00	47032.28
829.00	47160.23
830.00	47185.20
831.00	47261.66
832.00	47412.23
833.00	47185.20
834.00	47309.25
835.00	47506.63
836.00	47948.99
837.00	48300.86
838.00	48492.78
839.00	48577.82
840.00	48616.05
841.00	48649.60
842.00	48884.43
843.00	49171.53
844.00	49342.39
845.00	49524.96
846.00	49606.09
847.00	49704.40
848.00	49649.78
849.00	49696.59
850.00	49773.05
851.00	49890.08
852.00	49862.77
853.00	49932.99
854.00	49996.96
855.00	50256.76
856.00	50174.84
857.00	50231.80
858.00	50066.40
859.00	50179.53
860.00	50298.89
861.00	50365.99
862.00	50564.15
863.00	50582.10
864.00	50675.72
865.00	50625.01
866.00	50742.03
867.00	50796.65
868.00	50859.06
869.00	50948.00
870.00	51122.76
871.00	51324.83
872.00	51338.09
873.00	51306.88
874.00	51394.26
875.00	51483.98
876.00	51650.16
877.00	51773.43
878.00	51958.33
879.00	52190.83
880.00	52186.92
881.00	52108.13
882.00	51989.54
883.00	51987.98
884.00	52032.45
885.00	52120.61
886.00	52226.71
887.00	52367.93
888.00	52347.64
889.00	52303.17
890.00	52317.21
891.00	52459.21
892.00	52593.40
893.00	52484.17
894.00	52461.55
895.00	52555.95
896.00	52769.72
897.00	52717.45
898.00	52728.37
899.00	52797.80
900.00	53108.32
901.00	53256.55
902.00	53407.12
903.00	53530.39
904.00	53577.98
905.00	53769.91
906.00	53757.42
907.00	53775.37
908.00	53558.48
909.00	53710.61
910.00	53794.09
911.00	53930.62
912.00	53762.11
913.00	53819.84
914.00	53867.43
915.00	54036.73
916.00	53933.74
917.00	53711.39
918.00	53613.87
919.00	53521.81
920.00	53677.85
921.00	53687.99
922.00	53929.84
923.00	54046.09
924.00	54096.02
925.00	54186.52
926.00	54397.17
927.00	54530.58
928.00	54602.36
929.00	54674.13
930.00	54783.36
931.00	54775.56
932.00	54703.00
933.00	54580.51
934.00	54595.34
935.00	54575.05
936.00	54752.93
937.00	54888.68
938.00	54877.76
939.00	54807.54
940.00	54847.33
941.00	54984.65
942.00	55125.86
943.00	55159.41
944.00	55263.95
945.00	55268.63
946.00	55334.95
947.00	55377.07
948.00	55561.20
949.00	55636.09
950.00	55742.20
951.00	55835.04
952.00	55738.30
953.00	55700.85
954.00	55575.24
955.00	55710.99
956.00	55767.16
957.00	55774.19
958.00	55948.95
959.00	56055.05
960.00	56098.74
961.00	55951.29
962.00	56013.70
963.00	56262.58
964.00	56522.38
965.00	56492.73
966.00	56520.04
967.00	56526.28
968.00	56680.75
969.00	56594.93
970.00	56602.74
971.00	56639.40
972.00	56738.49
973.00	56690.90
974.00	56723.66
975.00	56905.44
976.00	56904.66
977.00	56935.09
978.00	56872.68
979.00	56940.55
980.00	56871.12
981.00	56887.50
982.00	56954.60
983.00	57041.20
984.00	57107.51
985.00	57121.55
986.00	57120.77
987.00	57011.55
988.00	57123.89
989.00	57070.06
990.00	57318.16
991.00	57258.87
992.00	57443.77
993.00	57334.54
994.00	57572.50
995.00	57689.52
996.00	57932.16
997.00	57993.79
998.00	58079.61
999.00	58076.49
1000.00	58071.03
1001.00	58049.19
1002.00	57991.45
1003.00	57854.92
1004.00	57897.05
1005.00	57860.38
1006.00	58022.66
1007.00	57959.47
1008.00	58049.97
1009.00	57891.59
1010.00	57936.06
1011.00	57989.89
1012.00	58171.67
1013.00	58147.49
1014.00	58224.73
1015.00	58309.77
1016.00	58408.85
1017.00	58402.61
1018.00	58354.24
1019.00	58382.32
1020.00	58470.48
1021.00	58590.63
1022.00	58656.17
1023.00	58564.88
1024.00	58440.06
1025.00	58453.32
1026.00	58608.57
1027.00	58784.11
1028.00	58841.85
1029.00	58792.70
1030.00	58842.63
1031.00	58963.56
1032.00	59118.81
1033.00	59202.29
1034.00	59212.43
1035.00	59192.93
1036.00	59167.96
1037.00	59195.27
1038.00	59235.06
1039.00	59182.01
1040.00	59187.47
1041.00	59178.89
1042.00	59311.52
1043.00	59384.85
1044.00	59486.28
1045.00	59568.19
1046.00	59634.51
1047.00	59605.64
1048.00	59627.49
1049.00	59626.71
1050.00	59810.83
1051.00	59849.84
1052.00	59813.95
1053.00	59724.23
1054.00	59593.94
1055.00	59638.41
1056.00	59642.31
1057.00	59794.45
1058.00	59835.02
1059.00	59842.04
1060.00	59898.99
1061.00	59946.58
1062.00	60111.20
1063.00	60098.72
1064.00	60065.17
1065.00	60016.02
1066.00	60133.04
1067.00	60260.99
1068.00	60275.04
1069.00	60232.91
1070.00	60183.76
1071.00	60186.10
1072.00	60169.71
1073.00	60259.43
1074.00	60380.36
1075.00	60466.18
1076.00	60453.70
1077.00	60519.23
1078.00	60569.94
1079.00	60649.52
1080.00	60538.74
1081.00	60577.75
1082.00	60587.89
1083.00	60694.77
1084.00	60630.80
1085.00	60647.18
1086.00	60648.74
1087.00	60815.70
1088.00	60808.68
1089.00	60884.36
1090.00	60853.93
1091.00	60989.68
1092.00	60943.65
1093.00	60928.83
1094.00	60900.74
1095.00	60942.09
1096.00	60937.41
1097.00	60911.66
1098.00	60896.84
1099.00	61013.08
1100.00	61169.12
1101.00	61240.90
1102.00	61165.22
1103.00	61148.06
1104.00	61171.46
1105.00	61247.92
1106.00	61173.80
1107.00	61228.41
1108.00	61264.30
1109.00	61371.97
1110.00	61393.81
1111.00	61389.91
1112.00	61451.55
1113.00	61448.42
1114.00	61453.11
1115.00	61382.89
1116.00	61344.66
1117.00	61328.28
1118.00	61339.20
1119.00	61370.41
1120.00	61427.36
1121.00	61428.14
1122.00	61451.55
1123.00	61424.24
1124.00	61473.39
1125.00	61415.66
1126.00	61410.20
1127.00	61382.89
1128.00	61528.78
1129.00	61558.43
1130.00	61673.12
1131.00	61667.65
1132.00	61707.44
1133.00	61551.41
1134.00	61506.16
1135.00	61443.74
1136.00	61597.44
1137.00	61712.12
1138.00	61853.34
1139.00	61826.03
1140.00	61772.98
1141.00	61786.24
1142.00	61789.36
1143.00	61764.40
1144.00	61805.75
1145.00	61862.70
1146.00	61945.40
1147.00	61900.93
1148.00	61949.30
1149.00	61961.78
1150.00	61952.42
1151.00	61892.35
1152.00	61905.61
1153.00	61933.70
1154.00	61925.11
1155.00	61901.71
1156.00	61822.91
1157.00	61872.06
1158.00	61821.35
1159.00	61939.16
1160.00	61902.49
1161.00	62032.78
1162.00	62008.59
1163.00	62007.03
1164.00	61936.04
1165.00	61968.80
1166.00	61980.51
1167.00	62039.02
1168.00	62124.06
1169.00	62260.59
1170.00	62259.03
1171.00	62198.18
1172.00	62069.45
1173.00	62044.48
1174.00	61968.80
1175.00	61996.89
1176.00	62020.30
1177.00	62116.26
1178.00	62071.01
1179.00	62074.91
1180.00	62025.76
1181.00	62073.35
1182.00	62083.49
1183.00	62124.06
1184.00	62154.49
1185.00	62175.55
1186.00	62156.05
1187.00	62230.16
1188.00	62312.08
1189.00	62326.13
1190.00	62195.06
1191.00	62102.99
1192.00	62031.22
1193.00	62023.42
1194.00	61977.39
1195.00	62028.10
1196.00	62028.88
1197.00	62026.54
1198.00	61936.04
1199.00	62071.01
1200.00	62162.29
1201.00	62376.06
1202.00	62331.59
1203.00	62362.79
1204.00	62266.05
1205.00	62330.03
1206.00	62274.63
1207.00	62313.64
1208.00	62249.67
1209.00	62272.29
1210.00	62338.61
1211.00	62429.89
1212.00	62480.60
1213.00	62455.64
1214.00	62299.60
1215.00	62166.97
1216.00	62053.06
1217.00	62154.49
1218.00	62234.84
1219.00	62337.83
1220.00	62368.26
1221.00	62356.55
1222.00	62336.27
1223.00	62410.38
1224.00	62482.94
1225.00	62584.36
1226.00	62518.83
1227.00	62466.56
1228.00	62337.83
1229.00	62287.12
1230.00	62323.00
1231.00	62526.63
1232.00	62640.54
1233.00	62651.46
1234.00	62518.05
1235.00	62504.79
1236.00	62604.65
1237.00	62639.76
1238.00	62727.14
