SpectraSuite Data File
++++++++++++++++++++++++++++++++++++
Date: Thu Nov 16 14:16:16 EST 2017
User: cheriyan
Dark Spectrum Present: No
Reference Spectrum Present: No
Number of Sampled Component Spectra: 1
Spectrometers: USB2+H05261
Integration Time (usec): 100000 (USB2+H05261)
Spectra Averaged: 1 (USB2+H05261)
Boxcar Smoothing: 1 (USB2+H05261)
Correct for Electrical Dark: No (USB2+H05261)
Strobe/Lamp Enabled: No (USB2+H05261)
Correct for Detector Non-linearity: No (USB2+H05261)
Correct for Stray Light: No (USB2+H05261)
Number of Pixels in Processed Spectrum: 2048
>>>>>Begin Processed Spectral Data<<<<<
0.00	341.72
1.00	341.72
2.00	294.91
3.00	290.23
4.00	262.92
5.00	269.16
6.00	230.15
7.00	221.57
8.00	237.17
9.00	248.10
10.00	251.22
11.00	209.87
12.00	191.14
13.00	177.88
14.00	223.13
15.00	222.35
16.00	241.86
17.00	245.76
18.00	255.12
19.00	273.06
20.00	280.08
21.00	299.59
22.00	282.42
23.00	320.65
24.00	418.96
25.00	514.92
26.00	563.29
27.00	587.47
28.00	602.30
29.00	603.08
30.00	576.55
31.00	587.47
32.00	611.66
33.00	625.70
34.00	634.29
35.00	635.07
36.00	689.68
37.00	700.60
38.00	708.40
39.00	703.72
40.00	677.20
41.00	685.00
42.00	681.88
43.00	720.10
44.00	700.60
45.00	682.66
46.00	667.83
47.00	691.24
48.00	700.60
49.00	721.67
50.00	752.87
51.00	748.97
52.00	766.14
53.00	761.45
54.00	770.82
55.00	745.07
56.00	723.23
57.00	702.94
58.00	720.10
59.00	720.10
60.00	759.11
61.00	744.29
62.00	742.73
63.00	745.07
64.00	751.31
65.00	757.55
66.00	735.71
67.00	741.95
68.00	741.95
69.00	741.95
70.00	735.71
71.00	721.67
72.00	708.40
73.00	686.56
74.00	685.78
75.00	713.86
76.00	752.87
77.00	780.96
78.00	774.72
79.00	776.28
80.00	802.02
81.00	782.52
82.00	781.74
83.00	769.26
84.00	805.14
85.00	812.17
86.00	825.43
87.00	823.09
88.00	838.69
89.00	787.20
90.00	801.24
91.00	796.56
92.00	830.89
93.00	843.37
94.00	832.45
95.00	846.49
96.00	844.93
97.00	851.17
98.00	820.75
99.00	819.97
100.00	836.35
101.00	866.00
102.00	837.13
103.00	844.15
104.00	842.59
105.00	861.32
106.00	836.35
107.00	830.89
108.00	839.47
109.00	871.46
110.00	876.92
111.00	887.06
112.00	882.38
113.00	905.01
114.00	908.91
115.00	912.03
116.00	917.49
117.00	906.57
118.00	901.89
119.00	901.11
120.00	919.05
121.00	912.81
122.00	934.65
123.00	979.12
124.00	993.95
125.00	993.17
126.00	972.88
127.00	962.74
128.00	975.22
129.00	978.34
130.00	1010.33
131.00	1012.67
132.00	1004.87
133.00	989.27
134.00	972.88
135.00	996.29
136.00	1029.84
137.00	1039.98
138.00	1050.90
139.00	1007.99
140.00	999.41
141.00	973.66
142.00	1027.50
143.00	1051.68
144.00	1054.80
145.00	1022.81
146.00	987.71
147.00	1005.65
148.00	1029.06
149.00	1093.03
150.00	1078.21
151.00	1096.15
152.00	1104.73
153.00	1134.38
154.00	1122.68
155.00	1113.31
156.00	1121.90
157.00	1128.92
158.00	1121.90
159.00	1098.49
160.00	1106.29
161.00	1068.84
162.00	1093.03
163.00	1107.07
164.00	1118.78
165.00	1116.44
166.00	1120.34
167.00	1160.13
168.00	1160.13
169.00	1148.42
170.00	1142.18
171.00	1156.22
172.00	1213.96
173.00	1224.88
174.00	1235.02
175.00	1189.77
176.00	1235.02
177.00	1249.07
178.00	1270.13
179.00	1229.56
180.00	1227.22
181.00	1235.80
182.00	1279.49
183.00	1277.93
184.00	1271.69
185.00	1254.53
186.00	1253.75
187.00	1282.61
188.00	1259.99
189.00	1284.17
190.00	1294.32
191.00	1338.01
192.00	1357.51
193.00	1355.17
194.00	1351.27
195.00	1326.30
196.00	1366.09
197.00	1380.14
198.00	1384.82
199.00	1321.62
200.00	1306.80
201.00	1346.59
202.00	1422.27
203.00	1451.91
204.00	1464.40
205.00	1469.86
206.00	1453.47
207.00	1415.24
208.00	1398.86
209.00	1430.85
210.00	1490.92
211.00	1487.02
212.00	1475.32
213.00	1455.03
214.00	1462.05
215.00	1500.28
216.00	1505.74
217.00	1507.30
218.00	1509.65
219.00	1536.17
220.00	1547.87
221.00	1551.78
222.00	1544.75
223.00	1551.00
224.00	1561.14
225.00	1559.58
226.00	1593.12
227.00	1593.90
228.00	1606.39
229.00	1575.96
230.00	1563.48
231.00	1557.24
232.00	1607.95
233.00	1648.52
234.00	1701.57
235.00	1667.24
236.00	1669.58
237.00	1624.33
238.00	1679.72
239.00	1701.57
240.00	1761.64
241.00	1721.85
242.00	1723.41
243.00	1694.55
244.00	1742.92
245.00	1738.24
246.00	1779.59
247.00	1806.11
248.00	1871.65
249.00	1854.48
250.00	1825.62
251.00	1756.96
252.00	1802.21
253.00	1822.50
254.00	1872.43
255.00	1875.55
256.00	1890.37
257.00	1924.70
258.00	1934.84
259.00	1949.67
260.00	1921.58
261.00	1941.08
262.00	1942.64
263.00	1956.69
264.00	1966.83
265.00	1973.85
266.00	1991.02
267.00	2005.84
268.00	2023.00
269.00	2062.79
270.00	2097.12
271.00	2140.81
272.00	2112.72
273.00	2113.50
274.00	2101.02
275.00	2183.72
276.00	2185.28
277.00	2207.13
278.00	2173.58
279.00	2166.56
280.00	2134.57
281.00	2158.75
282.00	2152.51
283.00	2199.32
284.00	2182.94
285.00	2231.31
286.00	2232.09
287.00	2225.85
288.00	2175.14
289.00	2193.08
290.00	2238.33
291.00	2282.80
292.00	2278.12
293.00	2258.62
294.00	2249.25
295.00	2250.04
296.00	2282.02
297.00	2318.69
298.00	2353.02
299.00	2365.50
300.00	2335.07
301.00	2335.07
302.00	2337.42
303.00	2374.08
304.00	2374.86
305.00	2366.28
306.00	2343.66
307.00	2388.91
308.00	2407.63
309.00	2400.61
310.00	2385.01
311.00	2412.31
312.00	2455.22
313.00	2440.40
314.00	2413.87
315.00	2438.06
316.00	2427.14
317.00	2484.09
318.00	2472.39
319.00	2497.35
320.00	2494.23
321.00	2484.09
322.00	2533.24
323.00	2530.12
324.00	2589.41
325.00	2569.13
326.00	2585.51
327.00	2601.12
328.00	2581.61
329.00	2562.11
330.00	2573.03
331.00	2606.58
332.00	2610.48
333.00	2630.76
334.00	2648.71
335.00	2697.86
336.00	2690.06
337.00	2729.84
338.00	2671.33
339.00	2650.27
340.00	2656.51
341.00	2747.01
342.00	2764.17
343.00	2751.69
344.00	2757.15
345.00	2803.18
346.00	2877.30
347.00	2854.67
348.00	2849.99
349.00	2784.46
350.00	2797.72
351.00	2789.92
352.00	2862.48
353.00	2870.28
354.00	2939.71
355.00	2929.57
356.00	2956.88
357.00	2921.77
358.00	2949.86
359.00	2958.44
360.00	3045.04
361.00	3080.93
362.00	3151.14
363.00	3098.09
364.00	3052.06
365.00	3011.49
366.00	3023.19
367.00	3057.52
368.00	3091.07
369.00	3120.71
370.00	3126.18
371.00	3130.08
372.00	3166.74
373.00	3180.79
374.00	3190.93
375.00	3201.07
376.00	3212.78
377.00	3225.26
378.00	3207.31
379.00	3176.11
380.00	3217.46
381.00	3279.09
382.00	3308.74
383.00	3305.62
384.00	3316.54
385.00	3373.49
386.00	3422.64
387.00	3421.08
388.00	3423.42
389.00	3451.51
390.00	3506.12
391.00	3567.76
392.00	3580.24
393.00	3559.17
394.00	3568.54
395.00	3612.23
396.00	3680.10
397.00	3724.57
398.00	3747.20
399.00	3737.84
400.00	3715.99
401.00	3720.67
402.00	3735.50
403.00	3753.44
404.00	3781.53
405.00	3818.19
406.00	3843.16
407.00	3813.51
408.00	3782.31
409.00	3789.33
410.00	3819.75
411.00	3902.45
412.00	3984.37
413.00	3991.39
414.00	3980.47
415.00	3905.57
416.00	3975.01
417.00	4010.90
418.00	4045.23
419.00	4008.56
420.00	3989.83
421.00	3968.77
422.00	3998.42
423.00	4016.36
424.00	4070.97
425.00	4060.83
426.00	3996.07
427.00	3980.47
428.00	3963.31
429.00	4021.82
430.00	4037.42
431.00	4001.54
432.00	3999.98
433.00	4052.25
434.00	4141.19
435.00	4179.42
436.00	4166.93
437.00	4205.16
438.00	4188.00
439.00	4170.83
440.00	4203.60
441.00	4302.68
442.00	4404.89
443.00	4398.65
444.00	4364.32
445.00	4315.17
446.00	4295.66
447.00	4300.34
448.00	4340.91
449.00	4357.30
450.00	4411.91
451.00	4397.09
452.00	4451.70
453.00	4457.94
454.00	4518.01
455.00	4499.29
456.00	4539.08
457.00	4537.52
458.00	4592.91
459.00	4575.75
460.00	4596.03
461.00	4593.69
462.00	4633.48
463.00	4640.50
464.00	4723.98
465.00	4746.61
466.00	4800.44
467.00	4785.62
468.00	4732.56
469.00	4805.12
470.00	4810.58
471.00	4868.31
472.00	4831.65
473.00	4820.72
474.00	4864.41
475.00	4844.91
476.00	4917.47
477.00	4972.08
478.00	5079.74
479.00	5132.01
480.00	5080.52
481.00	5061.80
482.00	4972.08
483.00	5016.55
484.00	5025.13
485.00	5075.06
486.00	5085.20
487.00	5091.45
488.00	5146.06
489.00	5153.86
490.00	5185.07
491.00	5234.22
492.00	5303.65
493.00	5327.06
494.00	5311.46
495.00	5268.55
496.00	5331.74
497.00	5375.43
498.00	5448.77
499.00	5439.40
500.00	5413.66
501.00	5434.72
502.00	5455.01
503.00	5517.42
504.00	5589.20
505.00	5629.77
506.00	5637.57
507.00	5671.12
508.00	5675.02
509.00	5694.52
510.00	5675.02
511.00	5687.50
512.00	5677.36
513.00	5652.39
514.00	5670.34
515.00	5760.06
516.00	5853.68
517.00	5904.39
518.00	5873.96
519.00	5868.50
520.00	5902.05
521.00	5941.84
522.00	5941.84
523.00	5953.54
524.00	5996.45
525.00	6052.63
526.00	6022.20
527.00	5973.83
528.00	5887.23
529.00	5864.60
530.00	5944.18
531.00	5970.71
532.00	6033.12
533.00	6025.32
534.00	6078.37
535.00	6152.49
536.00	6111.14
537.00	6147.81
538.00	6137.66
539.00	6232.07
540.00	6248.45
541.00	6260.15
542.00	6257.03
543.00	6275.76
544.00	6316.33
545.00	6388.88
546.00	6428.67
547.00	6492.65
548.00	6508.25
549.00	6557.40
550.00	6557.40
551.00	6572.22
552.00	6572.22
553.00	6534.00
554.00	6604.99
555.00	6686.91
556.00	6731.38
557.00	6698.61
558.00	6703.29
559.00	6743.08
560.00	6725.92
561.00	6732.16
562.00	6786.77
563.00	6937.35
564.00	7008.34
565.00	7044.23
566.00	7038.77
567.00	7011.46
568.00	7080.12
569.00	7122.25
570.00	7225.23
571.00	7335.24
572.00	7342.26
573.00	7334.46
574.00	7287.65
575.00	7259.56
576.00	7366.45
577.00	7406.24
578.00	7543.55
579.00	7499.08
580.00	7616.10
581.00	7719.87
582.00	7801.79
583.00	7808.81
584.00	7811.93
585.00	7926.61
586.00	7957.82
587.00	7962.50
588.00	7958.60
589.00	8028.82
590.00	8116.20
591.00	8198.90
592.00	8231.66
593.00	8331.53
594.00	8431.39
595.00	8525.01
596.00	8572.60
597.00	8644.38
598.00	8746.58
599.00	8876.09
600.00	9011.84
601.00	9004.04
602.00	9013.40
603.00	8976.73
604.00	9159.30
605.00	9390.23
606.00	9473.71
607.00	9412.85
608.00	9333.28
609.00	9423.78
610.00	9488.53
611.00	9398.03
612.00	9343.42
613.00	9485.41
614.00	9661.73
615.00	9830.25
616.00	9876.28
617.00	9994.09
618.00	10028.42
619.00	10026.86
620.00	10054.94
621.00	10171.19
622.00	10298.36
623.00	10446.59
624.00	10490.28
625.00	10599.51
626.00	10661.92
627.00	10770.37
628.00	10834.34
629.00	10909.24
630.00	11063.71
631.00	11208.83
632.00	11257.98
633.00	11293.86
634.00	11318.05
635.00	11387.49
636.00	11406.99
637.00	11527.14
638.00	11680.05
639.00	11838.43
640.00	11838.43
641.00	11867.30
642.00	11870.42
643.00	11999.93
644.00	12116.95
645.00	12256.61
646.00	12434.49
647.00	12450.09
648.00	12489.88
649.00	12514.84
650.00	12652.94
651.00	12759.04
652.00	12754.36
653.00	12913.52
654.00	13124.94
655.00	13242.75
656.00	13270.84
657.00	13267.72
658.00	13405.03
659.00	13542.34
660.00	13711.64
661.00	13843.49
662.00	13904.34
663.00	13823.98
664.00	13845.83
665.00	13961.30
666.00	14152.44
667.00	14267.91
668.00	14305.35
669.00	14362.31
670.00	14327.98
671.00	14413.80
672.00	14547.99
673.00	14677.50
674.00	14830.41
675.00	14839.78
676.00	14977.87
677.00	14951.34
678.00	15032.48
679.00	15135.46
680.00	15353.91
681.00	15491.23
682.00	15654.28
683.00	15661.30
684.00	15885.22
685.00	15889.90
686.00	16049.83
687.00	16028.77
688.00	16169.20
689.00	16265.16
690.00	16439.92
691.00	16553.83
692.00	16607.66
693.00	16641.99
694.00	16686.46
695.00	16766.04
696.00	16794.90
697.00	16850.30
698.00	16896.33
699.00	16888.53
700.00	17060.94
701.00	17198.26
702.00	17312.94
703.00	17275.49
704.00	17422.95
705.00	17614.09
706.00	17710.05
707.00	17745.94
708.00	17923.82
709.00	18097.02
710.00	18069.72
711.00	18047.09
712.00	18196.88
713.00	18334.20
714.00	18490.23
715.00	18558.89
716.00	18693.86
717.00	18757.83
718.00	18826.49
719.00	18949.76
720.00	19005.15
721.00	18936.49
722.00	19043.38
723.00	19149.48
724.00	19339.85
725.00	19250.91
726.00	19200.97
727.00	19313.32
728.00	19443.61
729.00	19567.66
730.00	19613.69
731.00	19609.79
732.00	19637.87
733.00	19653.48
734.00	19800.93
735.00	19768.16
736.00	19823.56
737.00	20084.92
738.00	20284.64
739.00	20458.62
740.00	20329.11
741.00	20391.53
742.00	20368.12
743.00	20403.23
744.00	20406.35
745.00	20507.77
746.00	20516.36
747.00	20676.29
748.00	20578.77
749.00	20773.81
750.00	20888.50
751.00	20995.39
752.00	21102.27
753.00	21159.22
754.00	21408.88
755.00	21461.15
756.00	21526.69
757.00	21518.89
758.00	21603.92
759.00	21756.06
760.00	21876.99
761.00	21964.37
762.00	21951.10
763.00	22000.26
764.00	22004.16
765.00	22001.82
766.00	22054.87
767.00	22197.64
768.00	22220.27
769.00	22420.77
770.00	22590.85
771.00	22855.33
772.00	23047.26
773.00	23026.19
774.00	23118.25
775.00	23039.45
776.00	23065.20
777.00	23042.57
778.00	22992.64
779.00	23073.78
780.00	23129.95
781.00	23295.35
782.00	23383.51
783.00	23616.79
784.00	23736.15
785.00	23825.87
786.00	23870.34
787.00	23897.65
788.00	23985.03
789.00	24003.75
790.00	24112.20
791.00	24119.22
792.00	24125.46
793.00	24183.98
794.00	24333.77
795.00	24529.59
796.00	24584.21
797.00	24556.90
798.00	24717.62
799.00	24847.91
800.00	25035.93
801.00	25064.02
802.00	25138.91
803.00	25173.24
804.00	25188.07
805.00	25119.41
806.00	25250.48
807.00	25153.74
808.00	25294.95
809.00	25316.01
810.00	25653.83
811.00	25767.74
812.00	25892.57
813.00	25802.07
814.00	25937.04
815.00	26121.16
816.00	26370.04
817.00	26338.83
818.00	26405.14
819.00	26488.62
820.00	26572.10
821.00	26500.33
822.00	26522.95
823.00	26565.86
824.00	26582.24
825.00	26415.29
826.00	26440.25
827.00	26646.22
828.00	26867.01
829.00	27012.12
830.00	27031.63
831.00	27191.56
832.00	27409.23
833.00	27382.71
834.00	27475.55
835.00	27434.98
836.00	27684.64
837.00	27635.49
838.00	27681.52
839.00	27591.02
840.00	27658.89
841.00	27868.76
842.00	28119.98
843.00	28346.23
844.00	28262.75
845.00	28326.72
846.00	28333.75
847.00	28633.33
848.00	28585.74
849.00	28593.54
850.00	28410.20
851.00	28481.20
852.00	28481.98
853.00	28602.13
854.00	28534.25
855.00	28571.70
856.00	28566.24
857.00	28777.67
858.00	28886.11
859.00	28916.54
860.00	28845.54
861.00	28822.92
862.00	29048.39
863.00	29288.68
864.00	29536.00
865.00	29650.69
866.00	29824.67
867.00	29949.50
868.00	30141.42
869.00	30313.84
870.00	30293.55
871.00	30243.62
872.00	30218.66
873.00	30257.67
874.00	30267.81
875.00	30194.47
876.00	30347.39
877.00	30433.21
878.00	30370.01
879.00	30316.96
880.00	30185.89
881.00	30260.01
882.00	30348.17
883.00	30598.60
884.00	30657.12
885.00	30416.82
886.00	30326.32
887.00	30451.93
888.00	30913.80
889.00	31016.00
890.00	31095.58
891.00	30984.01
892.00	31000.40
893.00	30920.04
894.00	30912.24
895.00	30955.15
896.00	31082.31
897.00	31288.28
898.00	31403.75
899.00	31700.22
900.00	31818.80
901.00	32028.67
902.00	32055.20
903.00	32165.20
904.00	32302.51
905.00	32360.25
906.00	32151.94
907.00	31999.80
908.00	31939.73
909.00	32520.18
910.00	32597.42
911.00	32588.84
912.00	32170.66
913.00	31992.78
914.00	31902.28
915.00	32235.42
916.00	32515.50
917.00	32804.95
918.00	32734.73
919.00	32692.60
920.00	32624.73
921.00	32584.94
922.00	32741.75
923.00	32772.96
924.00	32779.20
925.00	32733.95
926.00	32802.61
927.00	32772.96
928.00	32854.10
929.00	33128.72
930.00	33378.38
931.00	33507.89
932.00	33564.06
933.00	33614.77
934.00	33693.57
935.00	33334.69
936.00	33239.51
937.00	33274.62
938.00	33384.62
939.00	33514.13
940.00	33551.58
941.00	33719.32
942.00	33802.80
943.00	33895.64
944.00	33931.53
945.00	33812.16
946.00	33684.99
947.00	33815.28
948.00	34143.73
949.00	34256.86
950.00	34359.84
951.00	34315.37
952.00	34314.59
953.00	34294.31
954.00	34333.32
955.00	34537.73
956.00	34672.70
957.00	34858.38
958.00	35126.76
959.00	35438.05
960.00	35385.78
961.00	35197.76
962.00	34916.11
963.00	34892.71
964.00	35023.00
965.00	35154.07
966.00	35514.51
967.00	35755.58
968.00	35988.08
969.00	35892.90
970.00	35935.02
971.00	35992.76
972.00	36139.43
973.00	35881.97
974.00	35739.98
975.00	35751.68
976.00	35992.76
977.00	35991.98
978.00	35800.83
979.00	35784.45
980.00	35769.63
981.00	36048.15
982.00	35977.93
983.00	36225.25
984.00	36280.64
985.00	36450.72
986.00	36357.10
987.00	36148.01
988.00	36257.24
989.00	36233.83
990.00	36540.44
991.00	36360.22
992.00	36634.06
993.00	36318.09
994.00	36498.31
995.00	36513.14
996.00	36932.87
997.00	37040.54
998.00	37255.09
999.00	37439.21
1000.00	37686.53
1001.00	37613.19
1002.00	37471.20
1003.00	37325.30
1004.00	37474.32
1005.00	37561.70
1006.00	37717.73
1007.00	37711.49
1008.00	37833.98
1009.00	37841.78
1010.00	37771.57
1011.00	37680.28
1012.00	37788.73
1013.00	37793.41
1014.00	37840.22
1015.00	37677.16
1016.00	37695.11
1017.00	37878.45
1018.00	38055.55
1019.00	38368.40
1020.00	38345.00
1021.00	38476.07
1022.00	38546.28
1023.00	38714.80
1024.00	38796.72
1025.00	38725.72
1026.00	38788.92
1027.00	38831.05
1028.00	38893.46
1029.00	38696.08
1030.00	38618.84
1031.00	38781.90
1032.00	39151.70
1033.00	39294.47
1034.00	39166.52
1035.00	38964.46
1036.00	39026.09
1037.00	39147.80
1038.00	39225.04
1039.00	39131.42
1040.00	39253.12
1041.00	39450.51
1042.00	39791.45
1043.00	39945.14
1044.00	39794.57
1045.00	39651.02
1046.00	39452.85
1047.00	39448.17
1048.00	39460.65
1049.00	39685.34
1050.00	40178.42
1051.00	40399.21
1052.00	40641.84
1053.00	40556.80
1054.00	40543.54
1055.00	40403.89
1056.00	40439.78
1057.00	40622.34
1058.00	40690.99
1059.00	40761.21
1060.00	40785.40
1061.00	40778.37
1062.00	40858.73
1063.00	40831.43
1064.00	40980.44
1065.00	40928.95
1066.00	41063.92
1067.00	41180.17
1068.00	41138.04
1069.00	41016.33
1070.00	40815.82
1071.00	40878.24
1072.00	40935.97
1073.00	41125.55
1074.00	41167.68
1075.00	41225.42
1076.00	41113.85
1077.00	41124.77
1078.00	41109.17
1079.00	41145.84
1080.00	41237.90
1081.00	41369.75
1082.00	41566.35
1083.00	41634.23
1084.00	41584.30
1085.00	41635.79
1086.00	41625.65
1087.00	41787.92
1088.00	41855.02
1089.00	42121.84
1090.00	42168.65
1091.00	42223.26
1092.00	42134.32
1093.00	42187.38
1094.00	42157.73
1095.00	42170.99
1096.00	42097.66
1097.00	42109.36
1098.00	42149.93
1099.00	42163.19
1100.00	42332.49
1101.00	42409.73
1102.00	42650.02
1103.00	42835.70
1104.00	43012.02
1105.00	42899.68
1106.00	42673.43
1107.00	42451.86
1108.00	42568.10
1109.00	42586.05
1110.00	42819.32
1111.00	42679.67
1112.00	42771.73
1113.00	42603.99
1114.00	42837.26
1115.00	42905.92
1116.00	43047.13
1117.00	42968.33
1118.00	42880.17
1119.00	42794.36
1120.00	42756.91
1121.00	42703.07
1122.00	42824.78
1123.00	42829.46
1124.00	42796.70
1125.00	42763.15
1126.00	42683.57
1127.00	42871.59
1128.00	42796.70
1129.00	42850.53
1130.00	42916.84
1131.00	43120.47
1132.00	43521.48
1133.00	43548.79
1134.00	43639.29
1135.00	43489.49
1136.00	43480.91
1137.00	43255.44
1138.00	43365.45
1139.00	43592.48
1140.00	43672.84
1141.00	43685.32
1142.00	43697.80
1143.00	43789.86
1144.00	43798.44
1145.00	43718.87
1146.00	43729.79
1147.00	43374.81
1148.00	43194.59
1149.00	43225.01
1150.00	43594.82
1151.00	43697.02
1152.00	43945.12
1153.00	44093.35
1154.00	44201.02
1155.00	43966.96
1156.00	43713.41
1157.00	43677.52
1158.00	43672.84
1159.00	43707.94
1160.00	43726.67
1161.00	43974.77
1162.00	44110.52
1163.00	44066.05
1164.00	43981.01
1165.00	44104.27
1166.00	44073.85
1167.00	44062.15
1168.00	43989.59
1169.00	44191.65
1170.00	44104.27
1171.00	44115.98
1172.00	43870.22
1173.00	43967.74
1174.00	43846.04
1175.00	43898.31
1176.00	43639.29
1177.00	43617.44
1178.00	43612.76
1179.00	43721.99
1180.00	43687.66
1181.00	43765.68
1182.00	43981.01
1183.00	44218.96
1184.00	44362.51
1185.00	44358.61
1186.00	44316.48
1187.00	44234.56
1188.00	44158.89
1189.00	44194.00
1190.00	44239.25
1191.00	44222.86
1192.00	44083.21
1193.00	44124.56
1194.00	44273.57
1195.00	44394.50
1196.00	44401.52
1197.00	44414.01
1198.00	44424.15
1199.00	44468.62
1200.00	44512.31
1201.00	44620.75
1202.00	44713.59
1203.00	44794.73
1204.00	44782.25
1205.00	44758.84
1206.00	44616.85
1207.00	44816.58
1208.00	44700.33
1209.00	44744.02
1210.00	44566.14
1211.00	44563.02
1212.00	44630.90
1213.00	44589.55
1214.00	44538.83
1215.00	44467.06
1216.00	44299.32
1217.00	44410.10
1218.00	44360.95
1219.00	44561.46
1220.00	44473.30
1221.00	44355.49
1222.00	44131.58
1223.00	44053.56
1224.00	44193.22
1225.00	44466.28
1226.00	44658.98
1227.00	44743.24
1228.00	44708.91
1229.00	44760.40
1230.00	44662.10
1231.00	44644.16
1232.00	44641.04
1233.00	44708.13
1234.00	44698.77
1235.00	44655.86
1236.00	44744.02
1237.00	44807.22
1238.00	44900.84
1239.00	45067.80
1240.00	45318.23
1241.00	45511.72
1242.00	45802.72
1243.00	45890.10
1244.00	45799.60
1245.00	45620.16
1246.00	45617.04
1247.00	45812.09
1248.00	45883.86
1249.00	45723.93
