SpectraSuite Data File
++++++++++++++++++++++++++++++++++++
Date: Thu Nov 16 14:04:09 EST 2017
User: cheriyan
Dark Spectrum Present: No
Reference Spectrum Present: No
Number of Sampled Component Spectra: 1
Spectrometers: USB2+H05261
Integration Time (usec): 100000 (USB2+H05261)
Spectra Averaged: 1 (USB2+H05261)
Boxcar Smoothing: 1 (USB2+H05261)
Correct for Electrical Dark: No (USB2+H05261)
Strobe/Lamp Enabled: No (USB2+H05261)
Correct for Detector Non-linearity: No (USB2+H05261)
Correct for Stray Light: No (USB2+H05261)
Number of Pixels in Processed Spectrum: 2048
>>>>>Begin Processed Spectral Data<<<<<
0.00	397.89
1.00	397.89
2.00	344.84
3.00	300.37
4.00	259.02
5.00	269.94
6.00	262.14
7.00	229.37
8.00	217.67
9.00	225.47
10.00	246.54
11.00	234.05
12.00	246.54
13.00	245.76
14.00	290.23
15.00	276.18
16.00	266.04
17.00	248.88
18.00	265.26
19.00	278.52
20.00	276.18
21.00	281.64
22.00	319.87
23.00	387.75
24.00	547.69
25.00	678.76
26.00	801.24
27.00	813.73
28.00	844.15
29.00	868.34
30.00	864.44
31.00	850.39
32.00	809.83
33.00	822.31
34.00	859.76
35.00	883.16
36.00	896.43
37.00	905.01
38.00	915.15
39.00	914.37
40.00	916.71
41.00	927.63
42.00	929.97
43.00	923.73
44.00	921.39
45.00	924.51
46.00	964.30
47.00	993.17
48.00	1014.23
49.00	1006.43
50.00	1007.99
51.00	1041.54
52.00	1061.04
53.00	1060.26
54.00	1064.16
55.00	1029.84
56.00	1037.64
57.00	1014.23
58.00	987.71
59.00	997.85
60.00	1000.97
61.00	1046.22
62.00	1038.42
63.00	1049.34
64.00	1052.46
65.00	1086.79
66.00	1082.89
67.00	1082.11
68.00	1027.50
69.00	1056.36
70.00	1064.16
71.00	1107.85
72.00	1092.25
73.00	1078.21
74.00	1048.56
75.00	1045.44
76.00	1056.36
77.00	1071.97
78.00	1080.55
79.00	1082.11
80.00	1095.37
81.00	1089.91
82.00	1120.34
83.00	1115.66
84.00	1138.28
85.00	1125.80
86.00	1130.48
87.00	1140.62
88.00	1149.20
89.00	1143.74
90.00	1133.60
91.00	1186.65
92.00	1222.54
93.00	1234.24
94.00	1238.92
95.00	1262.33
96.00	1286.51
97.00	1254.53
98.00	1255.31
99.00	1234.24
100.00	1225.66
101.00	1204.60
102.00	1214.74
103.00	1250.63
104.00	1251.41
105.00	1295.88
106.00	1298.22
107.00	1328.64
108.00	1323.96
109.00	1326.30
110.00	1346.59
111.00	1332.54
112.00	1331.76
113.00	1338.01
114.00	1346.59
115.00	1396.52
116.00	1394.96
117.00	1403.54
118.00	1366.87
119.00	1391.84
120.00	1427.73
121.00	1440.21
122.00	1420.71
123.00	1416.80
124.00	1444.89
125.00	1462.83
126.00	1465.18
127.00	1472.98
128.00	1499.50
129.00	1512.77
130.00	1502.62
131.00	1485.46
132.00	1464.40
133.00	1451.91
134.00	1441.77
135.00	1482.34
136.00	1523.69
137.00	1546.31
138.00	1533.83
139.00	1536.17
140.00	1569.72
141.00	1596.25
142.00	1621.21
143.00	1599.37
144.00	1604.05
145.00	1616.53
146.00	1650.08
147.00	1652.42
148.00	1668.02
149.00	1676.60
150.00	1692.21
151.00	1686.75
152.00	1692.99
153.00	1695.33
154.00	1728.88
155.00	1760.86
156.00	1810.79
157.00	1778.81
158.00	1791.29
159.00	1773.35
160.00	1763.20
161.00	1742.14
162.00	1754.62
163.00	1768.66
164.00	1792.85
165.00	1788.95
166.00	1841.22
167.00	1839.66
168.00	1861.51
169.00	1884.91
170.00	1911.44
171.00	1923.14
172.00	1899.73
173.00	1891.93
174.00	1902.86
175.00	1931.72
176.00	1962.93
177.00	1958.25
178.00	1962.15
179.00	1952.79
180.00	1984.77
181.00	2005.06
182.00	2019.88
183.00	2030.02
184.00	2054.99
185.00	2031.58
186.00	2037.83
187.00	2040.95
188.00	2097.12
189.00	2097.12
190.00	2108.82
191.00	2112.72
192.00	2124.43
193.00	2141.59
194.00	2179.82
195.00	2196.98
196.00	2218.05
197.00	2224.29
198.00	2246.91
199.00	2234.43
200.00	2211.81
201.00	2214.93
202.00	2236.77
203.00	2291.38
204.00	2320.25
205.00	2359.26
206.00	2363.94
207.00	2381.10
208.00	2402.95
209.00	2406.85
210.00	2414.65
211.00	2345.22
212.00	2357.70
213.00	2379.54
214.00	2419.33
215.00	2438.06
216.00	2433.38
217.00	2472.39
218.00	2490.33
219.00	2502.03
220.00	2512.18
221.00	2553.52
222.00	2569.91
223.00	2545.72
224.00	2516.08
225.00	2514.52
226.00	2575.37
227.00	2603.46
228.00	2636.22
229.00	2621.40
230.00	2584.73
231.00	2587.85
232.00	2590.97
233.00	2635.44
234.00	2665.87
235.00	2717.36
236.00	2782.90
237.00	2813.32
238.00	2797.72
239.00	2789.14
240.00	2810.20
241.00	2865.60
242.00	2920.21
243.00	2956.88
244.00	2977.16
245.00	2972.48
246.00	2976.38
247.00	3008.37
248.00	3013.83
249.00	2999.01
250.00	2974.82
251.00	2991.20
252.00	3025.53
253.00	3075.46
254.00	3128.52
255.00	3140.22
256.00	3183.91
257.00	3184.69
258.00	3240.08
259.00	3219.80
260.00	3260.37
261.00	3287.67
262.00	3307.18
263.00	3282.99
264.00	3288.45
265.00	3337.60
266.00	3365.69
267.00	3370.37
268.00	3349.31
269.00	3394.56
270.00	3437.47
271.00	3473.36
272.00	3508.46
273.00	3518.61
274.00	3563.08
275.00	3544.35
276.00	3579.46
277.00	3562.30
278.00	3570.10
279.00	3588.04
280.00	3645.77
281.00	3679.32
282.00	3653.58
283.00	3651.24
284.00	3665.28
285.00	3694.93
286.00	3769.04
287.00	3783.09
288.00	3806.49
289.00	3792.45
290.00	3804.93
291.00	3854.86
292.00	3841.60
293.00	3900.89
294.00	3887.63
295.00	3943.02
296.00	3957.07
297.00	3943.80
298.00	3940.68
299.00	3921.18
300.00	3918.84
301.00	3872.81
302.00	3881.39
303.00	3918.06
304.00	3999.20
305.00	4062.39
306.00	4117.78
307.00	4065.51
308.00	4055.37
309.00	4027.28
310.00	4090.48
311.00	4092.82
312.00	4144.31
313.00	4141.97
314.00	4137.29
315.00	4134.17
316.00	4222.33
317.00	4287.08
318.00	4312.05
319.00	4262.90
320.00	4283.96
321.00	4293.32
322.00	4315.17
323.00	4317.51
324.00	4379.14
325.00	4379.14
326.00	4424.39
327.00	4464.18
328.00	4505.53
329.00	4570.29
330.00	4553.12
331.00	4566.39
332.00	4507.09
333.00	4529.72
334.00	4592.13
335.00	4602.27
336.00	4628.02
337.00	4638.94
338.00	4713.84
339.00	4698.24
340.00	4773.91
341.00	4786.40
342.00	4848.81
343.00	4830.87
344.00	4879.24
345.00	4894.84
346.00	4904.20
347.00	4865.97
348.00	4855.83
349.00	4883.92
350.00	4900.30
351.00	4946.33
352.00	5010.31
353.00	5050.88
354.00	5076.62
355.00	5033.71
356.00	5033.71
357.00	5035.27
358.00	5060.24
359.00	5105.49
360.00	5192.09
361.00	5254.50
362.00	5319.26
363.00	5314.58
364.00	5252.94
365.00	5231.88
366.00	5221.74
367.00	5284.93
368.00	5375.43
369.00	5401.18
370.00	5483.88
371.00	5455.01
372.00	5456.57
373.00	5487.78
374.00	5511.96
375.00	5591.54
376.00	5558.77
377.00	5554.09
378.00	5598.56
379.00	5650.05
380.00	5776.44
381.00	5765.52
382.00	5841.20
383.00	5840.42
384.00	5897.37
385.00	5908.29
386.00	5937.16
387.00	6026.88
388.00	6138.44
389.00	6211.78
390.00	6162.63
391.00	6115.82
392.00	6077.59
393.00	6200.08
394.00	6237.53
395.00	6356.11
396.00	6396.68
397.00	6502.01
398.00	6502.01
399.00	6535.56
400.00	6530.09
401.00	6588.61
402.00	6628.40
403.00	6684.57
404.00	6750.89
405.00	6813.30
406.00	6849.19
407.00	6816.42
408.00	6746.98
409.00	6726.70
410.00	6764.93
411.00	6839.83
412.00	6835.14
413.00	6840.61
414.00	6810.96
415.00	6874.93
416.00	6948.27
417.00	6956.07
418.00	6949.05
419.00	6896.78
420.00	6911.60
421.00	6963.87
422.00	7038.77
423.00	7108.99
424.00	7096.50
425.00	7030.19
426.00	7062.96
427.00	7067.64
428.00	7134.73
429.00	7130.83
430.00	7231.48
431.00	7268.14
432.00	7219.77
433.00	7162.04
434.00	7197.15
435.00	7314.95
436.00	7368.79
437.00	7412.48
438.00	7410.14
439.00	7430.42
440.00	7476.45
441.00	7543.55
442.00	7649.65
443.00	7648.87
444.00	7673.84
445.00	7654.33
446.00	7623.12
447.00	7720.65
448.00	7766.68
449.00	7822.07
450.00	7769.02
451.00	7768.24
452.00	7857.96
453.00	7887.61
454.00	7903.21
455.00	7948.46
456.00	7955.48
457.00	8049.88
458.00	8056.90
459.00	8141.16
460.00	8143.50
461.00	8132.58
462.00	8131.80
463.00	8158.33
464.00	8205.92
465.00	8240.25
466.00	8296.42
467.00	8407.98
468.00	8365.85
469.00	8420.47
470.00	8384.58
471.00	8504.73
472.00	8529.69
473.00	8606.93
474.00	8667.00
475.00	8760.63
476.00	8883.89
477.00	9024.33
478.00	8997.02
479.00	8987.66
480.00	8894.82
481.00	8983.76
482.00	8972.83
483.00	9075.04
484.00	9177.24
485.00	9183.48
486.00	9221.71
487.00	9135.89
488.00	9178.80
489.00	9243.56
490.00	9219.37
491.00	9294.27
492.00	9370.72
493.00	9509.60
494.00	9480.73
495.00	9369.94
496.00	9388.67
497.00	9509.60
498.00	9646.13
499.00	9699.18
500.00	9706.98
501.00	9664.07
502.00	9729.61
503.00	9752.23
504.00	9840.39
505.00	9786.56
506.00	9870.82
507.00	9944.94
508.00	10072.89
509.00	10110.33
510.00	10211.76
511.00	10193.03
512.00	10290.56
513.00	10260.91
514.00	10371.69
515.00	10342.05
516.00	10374.81
517.00	10391.20
518.00	10469.22
519.00	10479.36
520.00	10551.92
521.00	10561.28
522.00	10582.34
523.00	10574.54
524.00	10650.22
525.00	10708.73
526.00	10750.86
527.00	10752.42
528.00	10772.71
529.00	10824.98
530.00	10833.56
531.00	10878.03
532.00	10908.46
533.00	10901.44
534.00	10895.19
535.00	10920.16
536.00	10953.71
537.00	10994.28
538.00	11004.42
539.00	11112.08
540.00	11254.86
541.00	11250.96
542.00	11259.54
543.00	11210.39
544.00	11271.24
545.00	11374.22
546.00	11396.07
547.00	11481.11
548.00	11527.92
549.00	11758.07
550.00	11868.08
551.00	11896.16
552.00	11802.54
553.00	11770.55
554.00	11777.58
555.00	11883.68
556.00	11942.97
557.00	12099.79
558.00	12234.76
559.00	12251.14
560.00	12233.98
561.00	12228.52
562.00	12339.30
563.00	12445.41
564.00	12471.93
565.00	12544.49
566.00	12723.15
567.00	12771.52
568.00	12831.60
569.00	12705.21
570.00	12904.93
571.00	13037.56
572.00	13187.36
573.00	13246.65
574.00	13227.15
575.00	13332.47
576.00	13401.13
577.00	13541.56
578.00	13693.69
579.00	13724.12
580.00	13843.49
581.00	13849.73
582.00	13953.49
583.00	14066.62
584.00	14212.51
585.00	14335.78
586.00	14532.39
587.00	14530.83
588.00	14523.02
589.00	14533.95
590.00	14615.87
591.00	14835.10
592.00	14960.70
593.00	15183.06
594.00	15303.20
595.00	15370.30
596.00	15492.01
597.00	15592.65
598.00	15857.13
599.00	15961.67
600.00	16045.15
601.00	15971.82
602.00	16004.58
603.00	16141.89
604.00	16363.47
605.00	16753.55
606.00	16942.36
607.00	17082.01
608.00	17098.39
609.00	17203.72
610.00	17251.31
611.00	17255.99
612.00	17445.57
613.00	17614.09
614.00	17848.93
615.00	17855.17
616.00	18007.30
617.00	18090.00
618.00	18301.43
619.00	18488.67
620.00	18654.85
621.00	18725.85
622.00	18761.73
623.00	19020.75
624.00	19175.23
625.00	19292.26
626.00	19312.54
627.00	19511.49
628.00	19739.30
629.00	20065.41
630.00	20353.30
631.00	20482.03
632.00	20415.71
633.00	20626.36
634.00	20898.64
635.00	21191.99
636.00	21201.35
637.00	21299.66
638.00	21433.07
639.00	21618.75
640.00	21746.70
641.00	21812.23
642.00	21944.08
643.00	22201.54
644.00	22485.53
645.00	22512.05
646.00	22468.36
647.00	22465.24
648.00	22836.61
649.00	23191.59
650.00	23372.59
651.00	23563.73
652.00	23568.41
653.00	23866.44
654.00	23941.34
655.00	24258.09
656.00	24549.10
657.00	24737.90
658.00	24915.00
659.00	25098.34
660.00	25320.70
661.00	25451.77
662.00	25384.67
663.00	25462.69
664.00	25766.96
665.00	26001.79
666.00	26203.86
667.00	26258.47
668.00	26384.08
669.00	26569.76
670.00	26713.31
671.00	26938.79
672.00	27087.02
673.00	27347.60
674.00	27505.20
675.00	27765.00
676.00	27770.46
677.00	27829.75
678.00	27833.65
679.00	28120.76
680.00	28426.59
681.00	28481.20
682.00	28635.67
683.00	28811.99
684.00	29238.75
685.00	29337.84
686.00	29526.64
687.00	29648.35
688.00	29849.63
689.00	29937.01
690.00	30118.79
691.00	30301.36
692.00	30433.21
693.00	30579.10
694.00	30781.95
695.00	31051.89
696.00	31306.23
697.00	31445.10
698.00	31683.05
699.00	31758.73
700.00	31914.76
701.00	31903.06
702.00	31850.01
703.00	31951.43
704.00	32347.76
705.00	32740.19
706.00	33120.92
707.00	33269.15
708.00	33369.80
709.00	33466.54
710.00	33543.00
711.00	33817.62
712.00	33884.72
713.00	33939.33
714.00	33984.58
715.00	34192.11
716.00	34362.18
717.00	34624.33
718.00	34614.96
719.00	34873.20
720.00	34883.34
721.00	35033.14
722.00	34912.99
723.00	35019.10
724.00	35314.78
725.00	35430.25
726.00	35576.14
727.00	35526.21
728.00	35736.86
729.00	35894.46
730.00	36129.29
731.00	36267.38
732.00	36400.01
733.00	36445.26
734.00	36471.01
735.00	36430.44
736.00	36506.90
737.00	36666.83
738.00	36915.71
739.00	37064.72
740.00	37288.63
741.00	37558.58
742.00	37761.42
743.00	37845.68
744.00	37865.19
745.00	38100.80
746.00	38342.66
747.00	38490.89
748.00	38469.83
749.00	38478.41
750.00	38628.20
751.00	38746.79
752.00	39073.68
753.00	39157.16
754.00	39321.78
755.00	39301.50
756.00	39462.21
757.00	39648.67
758.00	39813.29
759.00	39970.11
760.00	39917.84
761.00	39981.03
762.00	39953.72
763.00	40241.61
764.00	40332.11
765.00	40551.34
766.00	40663.69
767.00	40857.95
768.00	40882.92
769.00	41155.20
770.00	41354.93
771.00	41671.68
772.00	41826.93
773.00	42014.18
774.00	41968.93
775.00	41885.45
776.00	42029.78
777.00	42412.85
778.00	42561.08
779.00	42809.96
780.00	42789.67
781.00	42906.70
782.00	42906.70
783.00	43149.34
784.00	43240.62
785.00	43342.82
786.00	43445.02
787.00	43729.79
788.00	43958.38
789.00	44012.21
790.00	44154.99
791.00	44066.83
792.00	44331.31
793.00	44393.72
794.00	44589.55
795.00	44580.18
796.00	44812.68
797.00	45027.23
798.00	45191.84
799.00	45293.27
800.00	45409.51
801.00	45498.45
802.00	45628.74
803.00	45737.97
804.00	45862.80
805.00	46032.88
806.00	46117.92
807.00	46300.48
808.00	46248.99
809.00	46333.24
810.00	46476.80
811.00	46649.22
812.00	46749.08
813.00	46806.03
814.00	47017.46
815.00	47185.20
816.00	47363.86
817.00	47325.63
818.00	47440.32
819.00	47416.13
820.00	47512.88
821.00	47547.98
822.00	47686.85
823.00	47823.39
824.00	48002.83
825.00	48225.18
826.00	48346.89
827.00	48476.40
828.00	48526.33
829.00	48587.18
830.00	48660.52
831.00	48766.62
832.00	48939.82
833.00	48916.42
834.00	48975.71
835.00	49093.52
836.00	49251.11
837.00	49348.64
838.00	49443.82
839.00	49556.16
840.00	49654.47
841.00	49881.50
842.00	50057.04
843.00	50302.79
844.00	50389.39
845.00	50460.39
846.00	50462.73
847.00	50449.47
848.00	50627.35
849.00	50753.74
850.00	50791.19
851.00	50857.50
852.00	50787.28
853.00	50962.04
854.00	50923.04
855.00	51206.24
856.00	51345.11
857.00	51562.78
858.00	51719.60
859.00	51784.35
860.00	51754.71
861.00	51622.86
862.00	51655.62
863.00	51662.64
864.00	51601.79
865.00	51542.50
866.00	51746.12
867.00	52012.16
868.00	52179.90
869.00	52347.64
870.00	52374.17
871.00	52403.81
872.00	52346.08
873.00	52487.29
874.00	52587.94
875.00	52636.31
876.00	52707.30
877.00	52816.53
878.00	52995.19
879.00	53076.33
880.00	53199.60
881.00	53259.67
882.00	53168.39
883.00	53081.01
884.00	52894.55
885.00	52912.49
886.00	52993.63
887.00	53231.58
888.00	53520.25
889.00	53559.26
890.00	53613.09
891.00	53510.89
892.00	53510.89
893.00	53476.56
894.00	53485.14
895.00	53591.25
896.00	53601.39
897.00	53709.05
898.00	53741.04
899.00	53827.64
900.00	53859.63
901.00	53975.87
902.00	54141.27
903.00	54248.94
904.00	54472.85
905.00	54632.00
906.00	54791.94
907.00	54681.16
908.00	54407.31
909.00	54511.08
910.00	54542.28
911.00	54749.81
912.00	54525.12
913.00	54616.40
914.00	54525.90
915.00	54643.71
916.00	54529.02
917.00	54537.60
918.00	54469.73
919.00	54385.47
920.00	54550.09
921.00	54666.33
922.00	54914.43
923.00	54976.84
924.00	55007.27
925.00	55055.64
926.00	55214.02
927.00	55334.17
928.00	55439.49
929.00	55385.66
930.00	55441.83
931.00	55473.82
932.00	55592.40
933.00	55612.69
934.00	55614.25
935.00	55532.33
936.00	55526.09
937.00	55501.12
938.00	55555.74
939.00	55608.01
940.00	55718.01
941.00	55813.19
942.00	55923.20
943.00	56043.35
944.00	56142.43
945.00	56186.90
946.00	56253.22
947.00	56140.87
948.00	56217.33
949.00	56272.72
950.00	56430.32
951.00	56456.84
952.00	56451.38
953.00	56492.73
954.00	56516.14
955.00	56442.80
956.00	56456.84
957.00	56469.33
958.00	56692.46
959.00	56793.88
960.00	56895.30
961.00	56804.02
962.00	56834.45
963.00	56903.10
964.00	56983.46
965.00	57056.02
966.00	57200.35
967.00	57454.69
968.00	57483.56
969.00	57348.59
970.00	57335.32
971.00	57482.00
972.00	57691.08
973.00	57629.45
974.00	57632.57
975.00	57606.83
976.00	57620.09
977.00	57620.09
978.00	57638.81
979.00	57687.18
980.00	57631.79
981.00	57744.14
982.00	57817.47
983.00	57900.95
984.00	57889.25
985.00	57893.15
986.00	57959.47
987.00	57875.99
988.00	57954.78
989.00	57929.04
990.00	58120.96
991.00	57998.48
992.00	58133.45
993.00	58083.51
994.00	58323.81
995.00	58459.56
996.00	58631.20
997.00	58784.11
998.00	58844.97
999.00	58934.69
1000.00	58910.50
1001.00	58874.62
1002.00	58751.35
1003.00	58596.87
1004.00	58561.76
1005.00	58603.11
1006.00	58717.02
1007.00	58773.19
1008.00	58919.09
1009.00	58857.45
1010.00	58853.55
1011.00	58756.03
1012.00	58943.27
1013.00	58989.30
1014.00	59015.05
1015.00	59018.17
1016.00	59064.98
1017.00	59260.02
1018.00	59262.36
1019.00	59346.62
1020.00	59225.70
1021.00	59276.41
1022.00	59298.25
1023.00	59354.43
1024.00	59385.63
1025.00	59398.90
1026.00	59501.88
1027.00	59613.44
1028.00	59757.00
1029.00	59738.27
1030.00	59654.79
1031.00	59702.38
1032.00	59700.04
1033.00	59937.22
1034.00	59934.10
1035.00	60016.02
1036.00	60001.19
1037.00	59960.62
1038.00	60012.12
1039.00	59896.65
1040.00	59890.41
1041.00	59942.68
1042.00	60062.05
1043.00	60249.29
1044.00	60387.38
1045.00	60473.20
1046.00	60466.18
1047.00	60438.09
1048.00	60452.14
1049.00	60541.08
1050.00	60516.11
1051.00	60516.89
1052.00	60562.92
1053.00	60621.44
1054.00	60571.50
1055.00	60432.63
1056.00	60397.52
1057.00	60506.75
1058.00	60660.44
1059.00	60744.70
1060.00	60807.90
1061.00	60782.93
1062.00	60825.84
1063.00	60863.29
1064.00	60819.60
1065.00	60725.20
1066.00	60685.41
1067.00	60767.33
1068.00	60808.68
1069.00	60784.49
1070.00	60768.11
1071.00	60880.45
1072.00	60977.98
1073.00	61007.62
1074.00	61056.78
1075.00	61114.51
1076.00	61162.10
1077.00	61219.83
1078.00	61272.88
1079.00	61356.36
1080.00	61354.02
1081.00	61474.95
1082.00	61584.18
1083.00	61680.92
1084.00	61599.00
1085.00	61556.87
1086.00	61506.94
1087.00	61531.90
1088.00	61553.75
1089.00	61653.61
1090.00	61616.94
1091.00	61596.66
1092.00	61540.49
1093.00	61584.18
1094.00	61624.74
1095.00	61599.00
1096.00	61650.49
1097.00	61694.18
1098.00	61726.95
1099.00	61704.32
1100.00	61711.34
1101.00	61770.64
1102.00	61877.52
1103.00	61905.61
1104.00	61950.86
1105.00	61965.68
1106.00	61969.58
1107.00	61985.19
1108.00	62048.38
1109.00	62132.64
1110.00	62207.54
1111.00	62118.60
1112.00	62181.79
1113.00	62118.60
1114.00	62085.83
1115.00	61983.63
1116.00	61967.24
1117.00	62067.89
1118.00	62046.04
1119.00	62035.90
1120.00	62047.60
1121.00	62074.91
1122.00	62204.42
1123.00	62138.10
1124.00	62205.98
1125.00	62141.22
1126.00	62227.82
1127.00	62263.71
1128.00	62198.96
1129.00	62192.72
1130.00	62198.18
1131.00	62301.16
1132.00	62380.74
1133.00	62298.82
1134.00	62283.22
1135.00	62220.80
1136.00	62280.10
1137.00	62287.12
1138.00	62305.84
1139.00	62431.45
1140.00	62552.38
1141.00	62704.51
1142.00	62691.25
1143.00	62624.15
1144.00	62532.09
1145.00	62561.74
1146.00	62702.17
1147.00	62687.35
1148.00	62611.67
1149.00	62540.67
1150.00	62560.18
1151.00	62609.33
1152.00	62613.23
1153.00	62602.31
1154.00	62486.84
1155.00	62410.38
1156.00	62358.11
1157.00	62411.95
1158.00	62414.29
1159.00	62496.20
1160.00	62579.68
1161.00	62713.87
1162.00	62777.85
1163.00	62725.58
1164.00	62628.83
1165.00	62609.33
1166.00	62685.79
1167.00	62869.13
1168.00	62993.18
1169.00	63026.73
1170.00	62930.76
1171.00	62815.30
1172.00	62743.52
1173.00	62766.93
1174.00	62734.16
1175.00	62763.81
1176.00	62761.47
1177.00	62801.25
1178.00	62748.20
1179.00	62717.78
1180.00	62674.09
1181.00	62750.54
1182.00	62757.56
1183.00	62843.38
1184.00	62877.71
1185.00	62942.47
1186.00	62957.29
1187.00	62972.11
1188.00	62977.57
1189.00	62970.55
1190.00	62900.34
1191.00	62793.45
1192.00	62686.57
1193.00	62670.18
1194.00	62677.21
1195.00	62758.34
1196.00	62731.04
1197.00	62774.73
1198.00	62778.63
1199.00	62969.77
1200.00	62978.35
1201.00	63075.88
1202.00	62985.38
1203.00	63061.05
1204.00	62929.20
1205.00	62894.10
1206.00	62798.13
1207.00	62834.02
1208.00	62872.25
1209.00	62940.91
1210.00	63024.39
1211.00	63079.00
1212.00	63185.88
1213.00	63234.25
1214.00	63189.00
1215.00	63083.68
1216.00	62923.74
1217.00	62970.55
1218.00	63015.80
1219.00	63185.10
1220.00	63127.37
1221.00	63082.90
1222.00	63018.92
1223.00	63092.26
1224.00	63085.24
1225.00	63086.80
1226.00	63098.50
1227.00	63073.54
1228.00	62957.29
1229.00	62865.23
1230.00	62905.80
1231.00	63076.66
1232.00	63136.73
1233.00	63158.58
1234.00	63064.17
1235.00	63119.57
1236.00	63180.42
1237.00	63164.82
