SpectraSuite Data File
++++++++++++++++++++++++++++++++++++
Date: Thu Nov 16 14:05:19 EST 2017
User: cheriyan
Dark Spectrum Present: No
Reference Spectrum Present: No
Number of Sampled Component Spectra: 1
Spectrometers: USB2+H05261
Integration Time (usec): 100000 (USB2+H05261)
Spectra Averaged: 1 (USB2+H05261)
Boxcar Smoothing: 1 (USB2+H05261)
Correct for Electrical Dark: No (USB2+H05261)
Strobe/Lamp Enabled: No (USB2+H05261)
Correct for Detector Non-linearity: No (USB2+H05261)
Correct for Stray Light: No (USB2+H05261)
Number of Pixels in Processed Spectrum: 2048
>>>>>Begin Processed Spectral Data<<<<<
0.00	276.18
1.00	276.18
2.00	266.04
3.00	255.90
4.00	244.98
5.00	251.22
6.00	266.04
7.00	263.70
8.00	278.52
9.00	277.74
10.00	289.45
11.00	268.38
12.00	248.10
13.00	209.87
14.00	216.11
15.00	220.79
16.00	246.54
17.00	232.49
18.00	240.30
19.00	271.50
20.00	308.95
21.00	317.53
22.00	307.39
23.00	359.66
24.00	520.38
25.00	667.83
26.00	763.79
27.00	823.87
28.00	836.35
29.00	857.42
30.00	824.65
31.00	859.76
32.00	851.95
33.00	844.15
34.00	859.76
35.00	905.01
36.00	924.51
37.00	912.03
38.00	894.86
39.00	890.18
40.00	913.59
41.00	936.21
42.00	966.64
43.00	977.56
44.00	998.63
45.00	988.49
46.00	967.42
47.00	950.26
48.00	947.14
49.00	970.54
50.00	976.00
51.00	1015.79
52.00	1053.24
53.00	1043.88
54.00	1015.79
55.00	964.30
56.00	960.40
57.00	966.64
58.00	986.93
59.00	994.73
60.00	1018.91
61.00	1027.50
62.00	1053.24
63.00	1048.56
64.00	1048.56
65.00	1068.06
66.00	1096.93
67.00	1102.39
68.00	1082.89
69.00	1066.50
70.00	1061.82
71.00	1064.16
72.00	1042.32
73.00	1041.54
74.00	1060.26
75.00	1088.35
76.00	1093.81
77.00	1068.06
78.00	1087.57
79.00	1093.03
80.00	1145.30
81.00	1166.37
82.00	1191.33
83.00	1152.32
84.00	1128.92
85.00	1122.68
86.00	1149.20
87.00	1143.74
88.00	1138.28
89.00	1144.52
90.00	1162.47
91.00	1200.69
92.00	1199.91
93.00	1224.88
94.00	1236.58
95.00	1249.85
96.00	1256.09
97.00	1269.35
98.00	1259.99
99.00	1238.14
100.00	1212.40
101.00	1223.32
102.00	1238.14
103.00	1259.21
104.00	1274.81
105.00	1289.64
106.00	1281.05
107.00	1292.76
108.00	1280.27
109.00	1266.23
110.00	1290.42
111.00	1311.48
112.00	1353.61
113.00	1338.79
114.00	1348.15
115.00	1338.79
116.00	1359.07
117.00	1354.39
118.00	1362.97
119.00	1362.19
120.00	1360.63
121.00	1398.86
122.00	1429.29
123.00	1462.83
124.00	1439.43
125.00	1400.42
126.00	1389.50
127.00	1396.52
128.00	1385.60
129.00	1414.46
130.00	1454.25
131.00	1554.90
132.00	1552.56
133.00	1529.15
134.00	1485.46
135.00	1507.30
136.00	1554.12
137.00	1554.12
138.00	1568.94
139.00	1562.70
140.00	1571.28
141.00	1575.18
142.00	1564.26
143.00	1598.59
144.00	1596.25
145.00	1598.59
146.00	1584.54
147.00	1614.19
148.00	1643.84
149.00	1687.53
150.00	1707.81
151.00	1728.88
152.00	1724.19
153.00	1717.95
154.00	1735.12
155.00	1739.80
156.00	1733.56
157.00	1717.17
158.00	1728.10
159.00	1752.28
160.00	1774.91
161.00	1784.27
162.00	1829.52
163.00	1848.24
164.00	1881.01
165.00	1845.90
166.00	1836.54
167.00	1809.23
168.00	1830.30
169.00	1914.56
170.00	1914.56
171.00	1900.52
172.00	1827.96
173.00	1898.17
174.00	1959.03
175.00	2003.50
176.00	2033.93
177.00	2014.42
178.00	2015.20
179.00	1937.96
180.00	1937.96
181.00	1976.19
182.00	2032.37
183.00	2033.93
184.00	2043.29
185.00	2044.85
186.00	2069.03
187.00	2055.77
188.00	2090.88
189.00	2121.31
190.00	2161.09
191.00	2168.90
192.00	2179.04
193.00	2132.23
194.00	2136.13
195.00	2134.57
196.00	2157.19
197.00	2127.55
198.00	2142.37
199.00	2166.56
200.00	2232.87
201.00	2261.74
202.00	2257.84
203.00	2228.19
204.00	2266.42
205.00	2312.45
206.00	2339.76
207.00	2320.25
208.00	2342.10
209.00	2374.86
210.00	2377.98
211.00	2358.48
212.00	2355.36
213.00	2348.34
214.00	2378.76
215.00	2372.52
216.00	2389.69
217.00	2394.37
218.00	2474.73
219.00	2509.05
220.00	2501.25
221.00	2449.76
222.00	2466.92
223.00	2511.39
224.00	2576.93
225.00	2606.58
226.00	2624.52
227.00	2598.77
228.00	2615.94
229.00	2635.44
230.00	2654.95
231.00	2672.11
232.00	2677.57
233.00	2662.75
234.00	2651.83
235.00	2654.17
236.00	2720.48
237.00	2723.60
238.00	2725.94
239.00	2705.66
240.00	2725.94
241.00	2784.46
242.00	2841.41
243.00	2847.65
244.00	2836.73
245.00	2864.04
246.00	2908.51
247.00	2974.04
248.00	2962.34
249.00	3029.43
250.00	3059.86
251.00	3120.71
252.00	3126.96
253.00	3126.18
254.00	3127.74
255.00	3144.90
256.00	3160.50
257.00	3177.67
258.00	3172.21
259.00	3194.05
260.00	3221.36
261.00	3251.78
262.00	3259.59
263.00	3280.65
264.00	3311.08
265.00	3321.22
266.00	3356.33
267.00	3409.38
268.00	3467.11
269.00	3487.40
270.00	3499.10
271.00	3520.95
272.00	3563.86
273.00	3588.82
274.00	3623.93
275.00	3617.69
276.00	3582.58
277.00	3598.96
278.00	3609.11
279.00	3630.17
280.00	3669.18
281.00	3698.05
282.00	3728.47
283.00	3657.48
284.00	3708.97
285.00	3740.18
286.00	3843.16
287.00	3808.05
288.00	3788.55
289.00	3773.72
290.00	3780.75
291.00	3801.81
292.00	3797.91
293.00	3855.64
294.00	3896.21
295.00	3927.42
296.00	3894.65
297.00	3892.31
298.00	3930.54
299.00	3965.65
300.00	3976.57
301.00	3928.98
302.00	3897.77
303.00	3920.40
304.00	3944.58
305.00	4010.90
306.00	4014.80
307.00	4027.28
308.00	4058.49
309.00	4048.35
310.00	4056.93
311.00	4067.07
312.00	4083.45
313.00	4122.46
314.00	4108.42
315.00	4135.73
316.00	4134.17
317.00	4222.33
318.00	4268.36
319.00	4254.31
320.00	4203.60
321.00	4205.16
322.00	4287.86
323.00	4322.19
324.00	4370.56
325.00	4381.48
326.00	4399.43
327.00	4429.07
328.00	4446.24
329.00	4519.57
330.00	4549.22
331.00	4518.79
332.00	4435.32
333.00	4454.82
334.00	4508.65
335.00	4555.46
336.00	4582.77
337.00	4666.25
338.00	4715.40
339.00	4710.72
340.00	4688.09
341.00	4741.93
342.00	4738.02
343.00	4775.47
344.00	4798.10
345.00	4877.68
346.00	4947.89
347.00	4970.52
348.00	5027.47
349.00	4983.00
350.00	4968.96
351.00	4941.65
352.00	5000.94
353.00	5032.93
354.00	5029.03
355.00	5053.22
356.00	5036.05
357.00	5064.14
358.00	5057.12
359.00	5127.33
360.00	5137.48
361.00	5160.10
362.00	5121.09
363.00	5151.52
364.00	5199.89
365.00	5242.80
366.00	5261.52
367.00	5259.18
368.00	5355.93
369.00	5402.74
370.00	5460.47
371.00	5431.60
372.00	5413.66
373.00	5387.13
374.00	5359.83
375.00	5451.11
376.00	5523.66
377.00	5543.95
378.00	5579.84
379.00	5539.27
380.00	5677.36
381.00	5687.50
382.00	5753.82
383.00	5774.88
384.00	5770.20
385.00	5810.77
386.00	5843.54
387.00	5940.28
388.00	5969.15
389.00	6072.91
390.00	6193.84
391.00	6221.14
392.00	6216.46
393.00	6208.66
394.00	6297.60
395.00	6359.24
396.00	6380.30
397.00	6479.38
398.00	6524.63
399.00	6578.47
400.00	6577.69
401.00	6570.66
402.00	6561.30
403.00	6649.46
404.00	6682.23
405.00	6749.32
406.00	6758.69
407.00	6786.77
408.00	6716.56
409.00	6637.76
410.00	6633.86
411.00	6722.02
412.00	6803.16
413.00	6862.45
414.00	6906.14
415.00	6937.35
416.00	6899.90
417.00	6868.69
418.00	6849.19
419.00	6935.01
420.00	6970.12
421.00	7069.20
422.00	7087.14
423.00	7137.85
424.00	7111.33
425.00	7148.78
426.00	7158.14
427.00	7157.36
428.00	7106.65
429.00	7091.04
430.00	7143.32
431.00	7158.92
432.00	7143.32
433.00	7094.94
434.00	7121.47
435.00	7137.07
436.00	7230.70
437.00	7282.97
438.00	7316.51
439.00	7323.54
440.00	7460.85
441.00	7525.60
442.00	7544.33
443.00	7467.09
444.00	7526.38
445.00	7581.78
446.00	7651.99
447.00	7717.53
448.00	7735.47
449.00	7750.29
450.00	7798.66
451.00	7856.40
452.00	7834.55
453.00	7823.63
454.00	7815.83
455.00	7964.84
456.00	8051.44
457.00	8154.43
458.00	8091.23
459.00	8057.68
460.00	8022.58
461.00	8024.92
462.00	8067.05
463.00	8092.01
464.00	8168.47
465.00	8207.48
466.00	8296.42
467.00	8359.61
468.00	8348.69
469.00	8373.66
470.00	8493.80
471.00	8617.07
472.00	8657.64
473.00	8543.74
474.00	8627.21
475.00	8657.64
476.00	8789.49
477.00	8855.03
478.00	8964.25
479.00	9032.13
480.00	8977.51
481.00	9052.41
482.00	9036.81
483.00	8975.95
484.00	8966.59
485.00	9056.31
486.00	9234.19
487.00	9219.37
488.00	9227.17
489.00	9225.61
490.00	9256.82
491.00	9241.22
492.00	9305.19
493.00	9376.97
494.00	9454.98
495.00	9476.05
496.00	9410.51
497.00	9441.72
498.00	9468.25
499.00	9605.56
500.00	9653.93
501.00	9724.15
502.00	9776.42
503.00	9844.29
504.00	9875.50
505.00	9868.48
506.00	9929.33
507.00	9904.37
508.00	9996.43
509.00	9972.24
510.00	10132.18
511.00	10125.94
512.00	10214.10
513.00	10223.46
514.00	10260.91
515.00	10214.88
516.00	10246.87
517.00	10361.55
518.00	10520.71
519.00	10451.27
520.00	10371.69
521.00	10335.03
522.00	10453.61
523.00	10653.34
524.00	10732.14
525.00	10732.92
526.00	10640.86
527.00	10670.50
528.00	10767.24
529.00	10826.54
530.00	10798.45
531.00	10783.63
532.00	10757.88
533.00	10829.66
534.00	10853.06
535.00	10957.61
536.00	10937.32
537.00	10949.03
538.00	10971.65
539.00	11026.26
540.00	11073.07
541.00	11105.06
542.00	11130.03
543.00	11218.97
544.00	11289.18
545.00	11333.65
546.00	11233.01
547.00	11204.14
548.00	11341.46
549.00	11634.02
550.00	11779.92
551.00	11772.89
552.00	11759.63
553.00	11752.61
554.00	11763.53
555.00	11751.83
556.00	11800.20
557.00	11942.97
558.00	12063.12
559.00	12169.23
560.00	12230.86
561.00	12308.10
562.00	12252.70
563.00	12315.12
564.00	12324.48
565.00	12564.00
566.00	12677.12
567.00	12681.80
568.00	12598.32
569.00	12485.20
570.00	12721.59
571.00	12976.71
572.00	13222.47
573.00	13285.66
574.00	13279.42
575.00	13351.20
576.00	13463.54
577.00	13483.05
578.00	13615.68
579.00	13550.92
580.00	13646.10
581.00	13655.47
582.00	13884.06
583.00	14086.90
584.00	14272.59
585.00	14352.16
586.00	14469.97
587.00	14521.46
588.00	14441.89
589.00	14494.94
590.00	14585.44
591.00	14846.80
592.00	14984.11
593.00	15151.07
594.00	15186.18
595.00	15260.29
596.00	15381.22
597.00	15504.49
598.00	15713.58
599.00	15822.02
600.00	16014.73
601.00	16083.38
602.00	16011.60
603.00	16076.36
604.00	16213.67
605.00	16684.12
606.00	16940.02
607.00	17089.81
608.00	17093.71
609.00	17119.46
610.00	17139.74
611.00	17147.54
612.00	17197.48
613.00	17344.15
614.00	17536.07
615.00	17695.23
616.00	17948.79
617.00	18040.85
618.00	18349.02
619.00	18406.75
620.00	18593.22
621.00	18700.88
622.00	18958.34
623.00	19242.32
624.00	19354.67
625.00	19390.56
626.00	19416.30
627.00	19457.65
628.00	19525.53
629.00	19775.19
630.00	20121.59
631.00	20354.86
632.00	20436.00
633.00	20560.05
634.00	20781.62
635.00	20868.22
636.00	21025.81
637.00	21256.75
638.00	21585.98
639.00	21682.72
640.00	21809.11
641.00	21834.08
642.00	22068.13
643.00	22175.80
644.00	22411.41
645.00	22563.54
646.00	22558.08
647.00	22508.93
648.00	22626.74
649.00	22939.59
650.00	23264.92
651.00	23464.65
652.00	23548.13
653.00	23842.26
654.00	23998.29
655.00	24265.89
656.00	24364.98
657.00	24638.82
658.00	24812.80
659.00	25018.77
660.00	25072.60
661.00	25280.91
662.00	25298.07
663.00	25550.85
664.00	25588.30
665.00	25745.11
666.00	25849.66
667.00	26098.53
668.00	26270.17
669.00	26484.72
670.00	26466.00
671.00	26629.06
672.00	26743.74
673.00	27028.51
674.00	27218.09
675.00	27469.31
676.00	27601.94
677.00	27777.48
678.00	27714.28
679.00	27954.58
680.00	28144.94
681.00	28453.89
682.00	28627.87
683.00	28815.90
684.00	29001.58
685.00	29284.78
686.00	29447.06
687.00	29575.01
688.00	29563.31
689.00	29721.68
690.00	29878.50
691.00	30246.74
692.00	30416.04
693.00	30705.49
694.00	30762.44
695.00	31033.94
696.00	31201.68
697.00	31400.63
698.00	31593.33
699.00	31682.27
700.00	31885.90
701.00	31917.11
702.00	32023.21
703.00	32173.00
704.00	32462.45
705.00	32797.93
706.00	33019.50
707.00	33185.68
708.00	33351.07
709.00	33492.29
710.00	33607.75
711.00	33722.44
712.00	33815.28
713.00	33863.65
714.00	33959.61
715.00	34042.31
716.00	34298.99
717.00	34556.45
718.00	34590.78
719.00	34579.07
720.00	34550.21
721.00	34759.30
722.00	35089.31
723.00	35349.89
724.00	35543.38
725.00	35573.02
726.00	35474.72
727.00	35715.01
728.00	35803.17
729.00	36038.01
730.00	36012.26
731.00	36073.90
732.00	36166.74
733.00	36360.22
734.00	36527.18
735.00	36510.80
736.00	36424.98
737.00	36501.43
738.00	36587.25
739.00	36926.63
740.00	37061.60
741.00	37397.08
742.00	37353.39
743.00	37447.01
744.00	37517.23
745.00	37878.45
746.00	38131.23
747.00	38430.04
748.00	38565.01
749.00	38571.25
750.00	38584.51
751.00	38596.99
752.00	38870.06
753.00	38972.26
754.00	39205.53
755.00	39344.41
756.00	39651.80
757.00	39651.02
758.00	39791.45
759.00	39736.84
760.00	39770.38
761.00	39912.38
762.00	40050.47
763.00	40307.93
764.00	40355.52
765.00	40504.53
766.00	40727.66
767.00	40946.89
768.00	40960.94
769.00	40918.03
770.00	41042.85
771.00	41457.13
772.00	41832.39
773.00	41962.68
774.00	41961.90
775.00	41962.68
776.00	41993.89
777.00	42309.08
778.00	42507.25
779.00	42820.88
780.00	42776.41
781.00	42838.83
782.00	42838.05
783.00	42920.74
784.00	42976.14
785.00	42990.96
786.00	43198.49
787.00	43539.43
788.00	43912.35
789.00	44218.96
790.00	44336.77
791.00	44428.05
792.00	44491.24
793.00	44474.08
794.00	44569.26
795.00	44545.08
796.00	44713.59
797.00	44716.72
798.00	44943.75
799.00	44989.78
800.00	45080.28
801.00	45081.06
802.00	45298.73
803.00	45393.91
804.00	45554.63
805.00	45752.79
806.00	46116.36
807.00	46193.59
808.00	46242.74
809.00	46171.75
810.00	46399.56
811.00	46594.60
812.00	46814.62
813.00	46759.22
814.00	46877.03
815.00	46834.90
816.00	47047.89
817.00	46965.97
818.00	47121.23
819.00	47166.48
820.00	47278.82
821.00	47458.26
822.00	47659.55
823.00	47867.08
824.00	47983.32
825.00	48169.79
826.00	48268.09
827.00	48416.32
828.00	48354.69
829.00	48278.23
830.00	48252.48
831.00	48175.25
832.00	48513.06
833.00	48522.43
834.00	48759.60
835.00	48592.64
836.00	48834.50
837.00	49074.01
838.00	49306.51
839.00	49488.29
840.00	49623.26
841.00	49798.80
842.00	49858.87
843.00	50021.93
844.00	50149.10
845.00	50368.33
846.00	50365.21
847.00	50454.93
848.00	50412.02
849.00	50554.01
850.00	50572.74
851.00	50680.40
852.00	50556.35
853.00	50686.64
854.00	50604.72
855.00	50742.81
856.00	50785.72
857.00	50911.33
858.00	51118.86
859.00	51185.96
860.00	51353.69
861.00	51254.61
862.00	51301.42
863.00	51263.97
864.00	51323.27
865.00	51365.40
866.00	51469.16
867.00	51596.33
868.00	51743.00
869.00	52100.33
870.00	52223.59
871.00	52302.39
872.00	52215.01
873.00	52292.25
874.00	52346.86
875.00	52369.49
876.00	52461.55
877.00	52521.62
878.00	52669.08
879.00	52775.96
880.00	53001.43
881.00	53011.57
882.00	52866.46
883.00	52754.89
884.00	52688.58
885.00	52704.96
886.00	52740.85
887.00	52871.92
888.00	53082.57
889.00	53194.92
890.00	53213.64
891.00	53236.27
892.00	53301.80
893.00	53395.42
894.00	53364.99
895.00	53429.75
896.00	53453.15
897.00	53613.87
898.00	53643.52
899.00	53843.24
900.00	53968.07
901.00	54061.69
902.00	54025.03
903.00	54059.35
904.00	54114.75
905.00	54298.09
906.00	54341.00
907.00	54387.81
908.00	54160.00
909.00	54316.03
910.00	54348.02
911.00	54592.22
912.00	54461.93
913.00	54456.46
914.00	54294.19
915.00	54325.39
916.00	54341.00
917.00	54467.39
918.00	54570.37
919.00	54588.31
920.00	54663.21
921.00	54719.38
922.00	54938.61
923.00	54962.02
924.00	54953.44
925.00	54859.82
926.00	55068.90
927.00	55197.63
928.00	55327.14
929.00	55244.44
930.00	55282.67
931.00	55275.65
932.00	55372.39
933.00	55370.05
934.00	55395.02
935.00	55373.95
936.00	55416.08
937.00	55543.25
938.00	55455.87
939.00	55591.62
940.00	55547.93
941.00	55689.93
942.00	55727.38
943.00	55863.13
944.00	56018.38
945.00	56027.74
946.00	56074.55
947.00	56017.60
948.00	56087.82
949.00	56041.79
950.00	56199.38
951.00	56179.10
952.00	56200.94
953.00	56119.02
954.00	56172.86
955.00	56307.05
956.00	56404.57
957.00	56463.86
958.00	56582.45
959.00	56720.54
960.00	56734.59
961.00	56608.20
962.00	56681.53
963.00	56859.41
964.00	57077.08
965.00	57033.39
966.00	57066.94
967.00	57132.48
968.00	57261.21
969.00	57214.40
970.00	57246.38
971.00	57367.31
972.00	57447.67
973.00	57440.65
974.00	57318.94
975.00	57441.43
976.00	57460.93
977.00	57550.65
978.00	57469.51
979.00	57492.92
980.00	57504.62
981.00	57720.73
982.00	57734.77
983.00	57766.76
984.00	57641.15
985.00	57712.93
986.00	57801.87
987.00	57776.12
988.00	57904.85
989.00	57851.80
990.00	58017.20
991.00	57918.12
992.00	57983.65
993.00	57967.27
994.00	58170.89
995.00	58311.33
996.00	58475.94
997.00	58608.57
998.00	58749.01
999.00	58790.36
1000.00	58763.83
1001.00	58794.26
1002.00	58689.71
1003.00	58522.76
1004.00	58423.67
1005.00	58525.88
1006.00	58704.54
1007.00	58793.48
1008.00	58860.57
1009.00	58754.47
1010.00	58725.60
1011.00	58694.39
1012.00	58815.32
1013.00	58822.34
1014.00	58892.56
1015.00	58938.59
1016.00	58989.30
1017.00	59139.10
1018.00	59171.08
1019.00	59304.49
1020.00	59216.33
1021.00	59319.32
1022.00	59296.69
1023.00	59271.73
1024.00	59292.79
1025.00	59293.57
1026.00	59442.59
1027.00	59491.74
1028.00	59606.42
1029.00	59559.61
1030.00	59512.80
1031.00	59661.82
1032.00	59759.34
1033.00	59932.54
1034.00	59840.48
1035.00	59934.10
1036.00	59978.57
1037.00	60060.49
1038.00	60045.66
1039.00	59958.28
1040.00	59951.26
1041.00	59913.81
1042.00	59932.54
1043.00	59997.29
1044.00	60194.68
1045.00	60256.31
1046.00	60289.08
1047.00	60258.65
1048.00	60293.76
1049.00	60315.61
1050.00	60300.78
1051.00	60301.56
1052.00	60333.55
1053.00	60390.50
1054.00	60359.30
1055.00	60277.38
1056.00	60228.23
1057.00	60368.66
1058.00	60438.87
1059.00	60484.90
1060.00	60647.96
1061.00	60805.56
1062.00	60898.40
1063.00	60764.99
1064.00	60629.24
1065.00	60560.58
1066.00	60608.17
1067.00	60715.84
1068.00	60852.37
1069.00	60864.07
1070.00	60889.82
1071.00	60921.02
1072.00	61058.34
1073.00	61156.64
1074.00	61278.35
1075.00	61264.30
1076.00	61283.03
1077.00	61291.61
1078.00	61301.75
1079.00	61256.50
1080.00	61170.68
1081.00	61233.88
1082.00	61325.94
1083.00	61357.92
1084.00	61371.19
1085.00	61449.99
1086.00	61537.36
1087.00	61504.60
1088.00	61418.00
1089.00	61569.35
1090.00	61616.16
1091.00	61676.24
1092.00	61627.09
1093.00	61596.66
1094.00	61694.18
1095.00	61632.55
1096.00	61713.69
1097.00	61648.15
1098.00	61645.81
1099.00	61648.15
1100.00	61633.33
1101.00	61728.51
1102.00	61779.22
1103.00	61858.80
1104.00	61844.76
1105.00	61913.41
1106.00	61841.63
1107.00	61849.44
1108.00	61805.75
1109.00	61947.74
1110.00	62085.83
1111.00	62129.52
1112.00	62120.94
1113.00	62060.86
1114.00	62021.86
1115.00	61999.23
1116.00	61924.33
1117.00	61991.43
1118.00	62012.49
1119.00	62054.62
1120.00	62093.63
1121.00	62138.88
1122.00	62198.18
1123.00	62154.49
1124.00	62162.29
1125.00	62124.06
1126.00	62102.21
1127.00	62083.49
1128.00	62085.05
1129.00	62083.49
1130.00	62090.51
1131.00	62047.60
1132.00	62126.40
1133.00	62104.55
1134.00	62182.57
1135.00	62134.98
1136.00	62188.81
1137.00	62195.06
1138.00	62347.19
1139.00	62425.21
1140.00	62397.12
1141.00	62346.41
1142.00	62300.38
1143.00	62441.59
1144.00	62454.07
1145.00	62506.35
1146.00	62533.65
1147.00	62463.44
1148.00	62478.26
1149.00	62511.03
1150.00	62621.81
1151.00	62647.56
1152.00	62548.48
1153.00	62496.98
1154.00	62375.28
1155.00	62403.36
1156.00	62397.90
1157.00	62468.12
1158.00	62484.50
1159.00	62563.30
1160.00	62575.78
1161.00	62606.21
1162.00	62573.44
1163.00	62542.24
1164.00	62543.02
1165.00	62597.63
1166.00	62614.79
1167.00	62606.99
1168.00	62699.05
1169.00	62847.28
1170.00	62884.73
1171.00	62805.94
1172.00	62748.20
1173.00	62715.43
1174.00	62721.68
1175.00	62765.37
1176.00	62786.43
1177.00	62759.90
1178.00	62753.66
1179.00	62780.19
1180.00	62859.77
1181.00	62814.52
1182.00	62863.67
1183.00	62858.21
1184.00	62911.26
1185.00	62852.75
1186.00	62830.90
1187.00	62867.57
1188.00	62910.48
1189.00	62858.99
1190.00	62795.79
1191.00	62714.65
1192.00	62623.37
1193.00	62584.36
1194.00	62600.75
1195.00	62787.21
1196.00	62858.21
1197.00	62875.37
1198.00	62822.32
1199.00	62813.74
1200.00	62904.24
1201.00	62971.33
1202.00	62993.18
1203.00	62901.12
1204.00	62826.22
1205.00	62867.57
1206.00	62896.44
1207.00	62976.01
1208.00	62918.28
1209.00	62884.73
1210.00	62880.83
1211.00	62926.08
1212.00	63038.43
1213.00	63076.66
1214.00	63070.42
1215.00	63097.72
1216.00	63048.57
1217.00	63020.48
1218.00	62921.40
1219.00	62877.71
1220.00	62986.94
1221.00	63041.55
1222.00	63090.70
1223.00	63061.83
1224.00	63063.39
1225.00	63088.36
1226.00	63092.26
1227.00	63022.83
1228.00	62935.44
1229.00	62792.67
1230.00	62816.08
1231.00	62904.24
1232.00	62994.74
1233.00	63091.48
1234.00	63075.88
1235.00	63057.93
1236.00	63028.29
1237.00	62982.26
1238.00	63090.70
