SpectraSuite Data File
++++++++++++++++++++++++++++++++++++
Date: Thu Nov 16 14:00:47 EST 2017
User: cheriyan
Dark Spectrum Present: No
Reference Spectrum Present: No
Number of Sampled Component Spectra: 1
Spectrometers: USB2+H05261
Integration Time (usec): 100000 (USB2+H05261)
Spectra Averaged: 1 (USB2+H05261)
Boxcar Smoothing: 1 (USB2+H05261)
Correct for Electrical Dark: No (USB2+H05261)
Strobe/Lamp Enabled: No (USB2+H05261)
Correct for Detector Non-linearity: No (USB2+H05261)
Correct for Stray Light: No (USB2+H05261)
Number of Pixels in Processed Spectrum: 2048
>>>>>Begin Processed Spectral Data<<<<<
0.00	411.93
1.00	411.93
2.00	366.68
3.00	280.86
4.00	241.86
5.00	230.15
6.00	267.60
7.00	243.42
8.00	244.98
9.00	227.03
10.00	221.57
11.00	209.09
12.00	231.71
13.00	227.03
14.00	259.02
15.00	246.54
16.00	270.72
17.00	275.40
18.00	270.72
19.00	279.30
20.00	261.36
21.00	291.01
22.00	296.47
23.00	351.08
24.00	483.71
25.00	612.44
26.00	752.09
27.00	783.30
28.00	832.45
29.00	836.35
30.00	842.59
31.00	849.61
32.00	865.22
33.00	868.34
34.00	878.48
35.00	890.18
36.00	915.15
37.00	912.03
38.00	886.28
39.00	889.40
40.00	916.71
41.00	952.60
42.00	964.30
43.00	974.44
44.00	948.70
45.00	949.48
46.00	944.02
47.00	961.18
48.00	956.50
49.00	957.28
50.00	975.22
51.00	1007.21
52.00	1025.93
53.00	1029.84
54.00	1011.89
55.00	1023.59
56.00	1002.53
57.00	1009.55
58.00	964.30
59.00	960.40
60.00	947.92
61.00	968.98
62.00	1016.57
63.00	1040.76
64.00	1073.53
65.00	1086.01
66.00	1093.81
67.00	1057.14
68.00	1045.44
69.00	1029.06
70.00	1058.70
71.00	1035.30
72.00	1026.72
73.00	1014.23
74.00	1005.65
75.00	1056.36
76.00	1059.48
77.00	1099.27
78.00	1082.89
79.00	1121.90
80.00	1125.80
81.00	1119.56
82.00	1103.17
83.00	1123.46
84.00	1185.87
85.00	1188.99
86.00	1171.83
87.00	1140.62
88.00	1176.51
89.00	1153.10
90.00	1121.12
91.00	1078.99
92.00	1099.27
93.00	1142.18
94.00	1178.85
95.00	1203.82
96.00	1208.50
97.00	1200.69
98.00	1207.72
99.00	1214.74
100.00	1203.82
101.00	1210.84
102.00	1224.10
103.00	1273.25
104.00	1276.37
105.00	1269.35
106.00	1237.36
107.00	1282.61
108.00	1277.15
109.00	1313.04
110.00	1278.71
111.00	1304.46
112.00	1316.94
113.00	1299.78
114.00	1306.80
115.00	1287.29
116.00	1335.67
117.00	1338.79
118.00	1383.26
119.00	1386.38
120.00	1380.14
121.00	1325.52
122.00	1309.14
123.00	1309.14
124.00	1333.33
125.00	1373.11
126.00	1387.16
127.00	1426.95
128.00	1417.58
129.00	1465.96
130.00	1464.40
131.00	1487.80
132.00	1451.91
133.00	1448.01
134.00	1453.47
135.00	1465.18
136.00	1528.37
137.00	1526.81
138.00	1537.73
139.00	1504.18
140.00	1501.06
141.00	1524.47
142.00	1532.27
143.00	1530.71
144.00	1540.85
145.00	1519.79
146.00	1571.28
147.00	1622.77
148.00	1663.34
149.00	1664.12
150.00	1653.20
151.00	1646.18
152.00	1639.16
153.00	1606.39
154.00	1650.08
155.00	1657.10
156.00	1693.77
157.00	1683.63
158.00	1696.11
159.00	1691.43
160.00	1702.35
161.00	1726.54
162.00	1732.78
163.00	1756.96
164.00	1727.32
165.00	1720.29
166.00	1724.19
167.00	1771.79
168.00	1814.70
169.00	1826.40
170.00	1822.50
171.00	1848.24
172.00	1869.31
173.00	1877.89
174.00	1878.67
175.00	1866.97
176.00	1899.73
177.00	1911.44
178.00	1956.69
179.00	1969.17
180.00	1986.33
181.00	1983.21
182.00	1987.11
183.00	1962.15
184.00	1970.73
185.00	1976.19
186.00	1994.92
187.00	1980.09
188.00	2023.78
189.00	2020.66
190.00	2028.46
191.00	1994.14
192.00	2051.87
193.00	2090.10
194.00	2145.49
195.00	2136.13
196.00	2148.61
197.00	2145.49
198.00	2175.14
199.00	2163.44
200.00	2128.33
201.00	2098.68
202.00	2139.25
203.00	2198.54
204.00	2255.50
205.00	2283.58
206.00	2306.99
207.00	2313.23
208.00	2292.16
209.00	2292.16
210.00	2307.77
211.00	2303.09
212.00	2300.75
213.00	2321.81
214.00	2350.68
215.00	2391.25
216.00	2390.47
217.00	2409.19
218.00	2409.97
219.00	2409.19
220.00	2401.39
221.00	2406.85
222.00	2420.89
223.00	2428.70
224.00	2452.88
225.00	2471.61
226.00	2528.56
227.00	2523.88
228.00	2540.26
229.00	2526.22
230.00	2543.38
231.00	2559.77
232.00	2612.04
233.00	2651.83
234.00	2664.31
235.00	2659.63
236.00	2646.37
237.00	2666.65
238.00	2687.72
239.00	2753.25
240.00	2756.37
241.00	2779.00
242.00	2788.36
243.00	2797.72
244.00	2861.69
245.00	2859.35
246.00	2874.18
247.00	2839.85
248.00	2864.82
249.00	2894.46
250.00	2899.92
251.00	2919.43
252.00	2977.94
253.00	2983.40
254.00	2982.62
255.00	3012.27
256.00	3096.53
257.00	3127.74
258.00	3121.49
259.00	3073.90
260.00	3101.99
261.00	3119.93
262.00	3176.89
263.00	3152.70
264.00	3165.96
265.00	3174.55
266.00	3272.07
267.00	3305.62
268.00	3347.75
269.00	3304.84
270.00	3322.78
271.00	3347.75
272.00	3362.57
273.00	3396.90
274.00	3428.10
275.00	3457.75
276.00	3479.60
277.00	3455.41
278.00	3457.75
279.00	3463.21
280.00	3506.90
281.00	3571.66
282.00	3585.70
283.00	3568.54
284.00	3607.55
285.00	3648.90
286.00	3673.08
287.00	3641.87
288.00	3572.44
289.00	3584.92
290.00	3599.74
291.00	3658.26
292.00	3698.05
293.00	3712.87
294.00	3726.13
295.00	3782.31
296.00	3819.75
297.00	3842.38
298.00	3833.02
299.00	3811.17
300.00	3835.36
301.00	3753.44
302.00	3780.75
303.00	3770.60
304.00	3861.10
305.00	3853.30
306.00	3858.76
307.00	3838.48
308.00	3872.81
309.00	3909.47
310.00	3935.22
311.00	3971.11
312.00	3949.26
313.00	4008.56
314.00	3950.04
315.00	3980.47
316.00	3907.91
317.00	3992.17
318.00	4025.72
319.00	4074.87
320.00	4077.21
321.00	4072.53
322.00	4121.68
323.00	4189.56
324.00	4232.47
325.00	4278.50
326.00	4259.78
327.00	4348.72
328.00	4354.18
329.00	4379.14
330.00	4345.59
331.00	4343.25
332.00	4336.23
333.00	4337.01
334.00	4332.33
335.00	4369.78
336.00	4438.44
337.00	4499.29
338.00	4542.20
339.00	4594.47
340.00	4626.46
341.00	4689.65
342.00	4634.26
343.00	4678.73
344.00	4656.89
345.00	4685.75
346.00	4666.25
347.00	4652.98
348.00	4712.28
349.00	4748.17
350.00	4781.71
351.00	4757.53
352.00	4802.78
353.00	4819.94
354.00	4787.96
355.00	4716.18
356.00	4731.00
357.00	4844.91
358.00	4904.20
359.00	4982.22
360.00	4990.02
361.00	5050.10
362.00	5032.93
363.00	5067.26
364.00	5052.44
365.00	5085.98
366.00	5060.24
367.00	5128.11
368.00	5191.31
369.00	5197.55
370.00	5225.64
371.00	5163.22
372.00	5241.24
373.00	5260.74
374.00	5326.28
375.00	5369.97
376.00	5350.46
377.00	5348.12
378.00	5341.88
379.00	5380.89
380.00	5423.02
381.00	5462.81
382.00	5538.49
383.00	5597.78
384.00	5611.82
385.00	5644.59
386.00	5699.98
387.00	5819.35
388.00	5859.14
389.00	5902.83
390.00	5898.93
391.00	5906.73
392.00	5973.05
393.00	6010.50
394.00	6025.32
395.00	6037.02
396.00	6101.00
397.00	6250.01
398.00	6307.74
399.00	6359.24
400.00	6310.86
401.00	6354.55
402.00	6345.97
403.00	6444.28
404.00	6448.18
405.00	6503.57
406.00	6523.85
407.00	6511.37
408.00	6405.27
409.00	6364.70
410.00	6459.88
411.00	6608.89
412.00	6651.02
413.00	6565.98
414.00	6546.48
415.00	6525.41
416.00	6621.38
417.00	6683.79
418.00	6736.84
419.00	6756.35
420.00	6736.06
421.00	6734.50
422.00	6781.31
423.00	6778.19
424.00	6785.99
425.00	6807.84
426.00	6810.96
427.00	6849.97
428.00	6782.87
429.00	6853.09
430.00	6850.75
431.00	6879.61
432.00	6849.19
433.00	6871.03
434.00	6881.96
435.00	6988.84
436.00	7021.61
437.00	7098.84
438.00	7058.28
439.00	7098.06
440.00	7169.06
441.00	7197.93
442.00	7241.62
443.00	7155.02
444.00	7244.74
445.00	7265.80
446.00	7332.90
447.00	7327.44
448.00	7346.94
449.00	7380.49
450.00	7470.99
451.00	7587.24
452.00	7641.85
453.00	7613.76
454.00	7538.09
455.00	7536.52
456.00	7685.54
457.00	7767.46
458.00	7821.29
459.00	7726.11
460.00	7718.31
461.00	7784.62
462.00	7851.72
463.00	7914.91
464.00	7962.50
465.00	7992.93
466.00	7992.93
467.00	7981.23
468.00	7972.64
469.00	8074.07
470.00	8127.90
471.00	8256.63
472.00	8301.88
473.00	8319.04
474.00	8311.24
475.00	8297.98
476.00	8403.30
477.00	8497.70
478.00	8547.64
479.00	8578.06
480.00	8542.18
481.00	8584.30
482.00	8606.93
483.00	8652.96
484.00	8815.24
485.00	8838.64
486.00	8861.27
487.00	8786.37
488.00	8826.94
489.00	8865.17
490.00	8901.06
491.00	8961.91
492.00	9023.55
493.00	9131.99
494.00	9154.62
495.00	9095.32
496.00	9037.59
497.00	9075.82
498.00	9156.96
499.00	9252.14
500.00	9240.44
501.00	9295.05
502.00	9324.69
503.00	9390.23
504.00	9469.03
505.00	9493.21
506.00	9514.28
507.00	9638.33
508.00	9689.04
509.00	9771.74
510.00	9733.51
511.00	9758.47
512.00	9923.87
513.00	9926.99
514.00	9990.97
515.00	9928.55
516.00	10072.89
517.00	10077.57
518.00	10070.54
519.00	9959.76
520.00	10071.33
521.00	10042.46
522.00	10173.53
523.00	10101.75
524.00	10223.46
525.00	10304.60
526.00	10361.55
527.00	10421.63
528.00	10406.80
529.00	10411.48
530.00	10445.81
531.00	10503.54
532.00	10564.40
533.00	10477.80
534.00	10410.70
535.00	10450.49
536.00	10477.80
537.00	10463.76
538.00	10516.81
539.00	10547.23
540.00	10626.03
541.00	10640.08
542.00	10711.85
543.00	10791.43
544.00	10864.77
545.00	10951.37
546.00	10942.00
547.00	10956.05
548.00	11044.99
549.00	11293.08
550.00	11352.38
551.00	11331.31
552.00	11241.59
553.00	11291.52
554.00	11336.77
555.00	11346.14
556.00	11408.55
557.00	11570.83
558.00	11748.71
559.00	11807.22
560.00	11756.51
561.00	11744.03
562.00	11806.44
563.00	11930.49
564.00	12040.50
565.00	12139.58
566.00	12276.11
567.00	12205.89
568.00	12255.04
569.00	12131.78
570.00	12365.05
571.00	12369.73
572.00	12595.98
573.00	12524.99
574.00	12592.86
575.00	12560.09
576.00	12860.46
577.00	12864.36
578.00	13072.67
579.00	12992.31
580.00	13248.99
581.00	13313.75
582.00	13408.15
583.00	13458.08
584.00	13521.27
585.00	13724.12
586.00	13855.97
587.00	13930.09
588.00	13838.81
589.00	13891.86
590.00	13973.00
591.00	14178.19
592.00	14454.37
593.00	14636.15
594.00	14789.06
595.00	14718.07
596.00	14813.25
597.00	14888.15
598.00	15078.51
599.00	15141.71
600.00	15264.97
601.00	15277.46
602.00	15398.38
603.00	15538.82
604.00	15874.29
605.00	16280.77
606.00	16367.37
607.00	16352.54
608.00	16233.96
609.00	16447.72
610.00	16554.61
611.00	16683.34
612.00	16659.93
613.00	16815.97
614.00	16960.30
615.00	17035.20
616.00	17151.45
617.00	17241.95
618.00	17552.46
619.00	17625.01
620.00	17891.84
621.00	18012.76
622.00	18292.07
623.00	18519.88
624.00	18678.26
625.00	18711.80
626.00	18662.65
627.00	18725.07
628.00	18875.64
629.00	19090.97
630.00	19349.99
631.00	19494.32
632.00	19420.99
633.00	19634.75
634.00	19793.13
635.00	20128.61
636.00	20299.47
637.00	20656.79
638.00	20861.19
639.00	20943.89
640.00	20941.55
641.00	21066.38
642.00	21191.21
643.00	21504.84
644.00	21637.47
645.00	21759.96
646.00	21784.93
647.00	21808.33
648.00	21972.17
649.00	22178.14
650.00	22618.16
651.00	22799.16
652.00	22784.34
653.00	22735.18
654.00	22871.72
655.00	23260.24
656.00	23445.93
657.00	23629.27
658.00	23612.10
659.00	23869.56
660.00	24095.04
661.00	24273.70
662.00	24425.83
663.00	24524.91
664.00	24712.94
665.00	24903.30
666.00	25156.86
667.00	25364.39
668.00	25483.75
669.00	25513.40
670.00	25580.50
671.00	25662.41
672.00	25755.26
673.00	25889.45
674.00	26161.73
675.00	26389.54
676.00	26550.26
677.00	26575.22
678.00	26675.09
679.00	26980.92
680.00	27097.16
681.00	27354.62
682.00	27443.56
683.00	27686.98
684.00	27963.94
685.00	28029.48
686.00	28167.57
687.00	28230.76
688.00	28449.99
689.00	28664.54
690.00	28782.35
691.00	29000.80
692.00	29145.13
693.00	29345.64
694.00	29486.85
695.00	29683.45
696.00	29798.92
697.00	29986.16
698.00	30095.39
699.00	30194.47
700.00	30361.43
701.00	30521.37
702.00	30723.43
703.00	31111.18
704.00	31344.45
705.00	31661.99
706.00	31670.57
707.00	31860.93
708.00	31893.70
709.00	31942.85
710.00	32159.74
711.00	32459.33
712.00	32697.28
713.00	32694.94
714.00	32693.38
715.00	32728.49
716.00	32841.62
717.00	33078.79
718.00	33116.24
719.00	33338.59
720.00	33349.51
721.00	33523.49
722.00	33653.78
723.00	33824.64
724.00	34031.39
725.00	34049.33
726.00	34061.04
727.00	34302.89
728.00	34363.75
729.00	34604.04
730.00	34685.96
731.00	34962.14
732.00	35048.74
733.00	34983.99
734.00	34937.18
735.00	34937.96
736.00	35166.55
737.00	35380.32
738.00	35719.70
739.00	35784.45
740.00	35814.10
741.00	35827.36
742.00	35852.33
743.00	35988.08
744.00	36129.29
745.00	36447.60
746.00	36637.97
747.00	36801.80
748.00	36896.20
749.00	37015.57
750.00	37172.39
751.00	37262.89
752.00	37554.68
753.00	37655.32
754.00	37811.35
755.00	37809.01
756.00	37920.58
757.00	37937.74
758.00	38138.25
759.00	38209.25
760.00	38403.51
761.00	38346.56
762.00	38533.80
763.00	38614.94
764.00	38795.94
765.00	38983.18
766.00	39158.72
767.00	39361.57
768.00	39368.59
769.00	39654.14
770.00	39827.34
771.00	39859.32
772.00	39854.64
773.00	39890.53
774.00	40045.79
775.00	40127.70
776.00	40394.53
777.00	40690.99
778.00	40845.47
779.00	41014.77
780.00	41013.21
781.00	41170.80
782.00	41076.40
783.00	41244.14
784.00	41403.30
785.00	41644.37
786.00	41918.99
787.00	42144.47
788.00	42408.17
789.00	42394.90
790.00	42315.33
791.00	42183.48
792.00	42344.19
793.00	42573.56
794.00	42844.29
795.00	42883.30
796.00	43132.95
797.00	43149.34
798.00	43420.84
799.00	43385.73
800.00	43618.22
801.00	43600.28
802.00	43744.61
803.00	43810.15
804.00	43930.30
805.00	44164.35
806.00	44311.80
807.00	44389.82
808.00	44382.02
809.00	44524.79
810.00	44767.43
811.00	44891.48
812.00	45088.86
813.00	45174.68
814.00	45404.05
815.00	45592.08
816.00	45868.26
817.00	45896.34
818.00	45739.53
819.00	45659.17
820.00	45837.05
821.00	46163.95
822.00	46415.16
823.00	46419.06
824.00	46327.00
825.00	46346.51
826.00	46364.45
827.00	46483.04
828.00	46632.83
829.00	46710.07
830.00	46848.16
831.00	46832.56
832.00	47043.99
833.00	46874.69
834.00	46943.34
835.00	46958.17
836.00	47320.95
837.00	47530.82
838.00	47731.33
839.00	47886.58
840.00	47998.15
841.00	48179.93
842.00	48388.24
843.00	48585.62
844.00	48784.57
845.00	48893.01
846.00	48997.55
847.00	49121.60
848.00	49187.92
849.00	49389.98
850.00	49299.48
851.00	49274.52
852.00	49154.37
853.00	49288.56
854.00	49290.90
855.00	49448.50
856.00	49570.21
857.00	49855.75
858.00	49986.04
859.00	50066.40
860.00	50082.78
861.00	50050.80
862.00	50200.59
863.00	50238.04
864.00	50298.89
865.00	50309.04
866.00	50334.00
867.00	50358.19
868.00	50305.13
869.00	50544.65
870.00	50800.55
871.00	50918.35
872.00	50942.54
873.00	50898.07
874.00	51020.56
875.00	51080.63
876.00	51339.65
877.00	51403.63
878.00	51423.91
879.00	51406.75
880.00	51448.10
881.00	51551.08
882.00	51539.38
883.00	51579.17
884.00	51549.52
885.00	51411.43
886.00	51469.94
887.00	51618.95
888.00	51913.86
889.00	52007.48
890.00	52151.04
891.00	52223.59
892.00	52302.39
893.00	52174.44
894.00	52062.10
895.00	52221.25
896.00	52487.29
897.00	52525.52
898.00	52536.44
899.00	52499.78
900.00	52764.26
901.00	52782.98
902.00	52944.48
903.00	53021.72
904.00	53203.50
905.00	53303.36
906.00	53266.69
907.00	53126.26
908.00	52983.49
909.00	53233.92
910.00	53442.23
911.00	53657.56
912.00	53487.48
913.00	53503.09
914.00	53342.37
915.00	53453.93
916.00	53356.41
917.00	53364.21
918.00	53384.50
919.00	53365.77
920.00	53424.29
921.00	53462.52
922.00	53596.71
923.00	53723.88
924.00	53666.14
925.00	53649.76
926.00	53804.24
927.00	53910.34
928.00	54013.32
929.00	54010.20
930.00	54092.12
931.00	54189.64
932.00	54232.55
933.00	54250.50
934.00	54220.07
935.00	54227.09
936.00	54419.80
937.00	54491.57
938.00	54447.10
939.00	54404.19
940.00	54482.21
941.00	54564.91
942.00	54703.00
943.00	54766.20
944.00	54838.75
945.00	54880.10
946.00	54892.58
947.00	54976.84
948.00	55007.27
949.00	55072.81
950.00	55223.38
951.00	55227.28
952.00	55274.09
953.00	55180.47
954.00	55264.73
955.00	55398.92
956.00	55432.47
957.00	55380.20
958.00	55539.35
959.00	55730.50
960.00	55771.85
961.00	55629.07
962.00	55739.08
963.00	55870.15
964.00	56122.93
965.00	55945.83
966.00	55983.27
967.00	55964.55
968.00	56166.62
969.00	56143.99
970.00	56182.22
971.00	56224.35
972.00	56530.18
973.00	56400.67
974.00	56479.47
975.00	56459.18
976.00	56643.30
977.00	56645.65
978.00	56626.92
979.00	56618.34
980.00	56574.65
981.00	56708.84
982.00	56699.48
983.00	56798.56
984.00	56754.09
985.00	56830.55
986.00	56772.81
987.00	56591.81
988.00	56681.53
989.00	56697.14
990.00	56922.61
991.00	56870.34
992.00	57080.99
993.00	57045.88
994.00	57258.09
995.00	57403.20
996.00	57499.94
997.00	57650.52
998.00	57687.18
999.00	57879.11
1000.00	57799.53
1001.00	57694.21
1002.00	57526.47
1003.00	57465.61
1004.00	57465.61
1005.00	57518.67
1006.00	57609.95
1007.00	57645.83
1008.00	57750.38
1009.00	57615.41
1010.00	57666.90
1011.00	57650.52
1012.00	57858.82
1013.00	57883.01
1014.00	57968.83
1015.00	57978.97
1016.00	58071.81
1017.00	58152.95
1018.00	58171.67
1019.00	58209.12
1020.00	58138.13
1021.00	58256.71
1022.00	58270.76
1023.00	58243.45
1024.00	58120.18
1025.00	58171.67
1026.00	58341.75
1027.00	58535.24
1028.00	58634.32
1029.00	58635.88
1030.00	58614.82
1031.00	58762.27
1032.00	58866.81
1033.00	58963.56
1034.00	58892.56
1035.00	58900.36
1036.00	58939.37
1037.00	58886.32
1038.00	58843.41
1039.00	58784.90
1040.00	58803.62
1041.00	58769.29
1042.00	58756.03
1043.00	58922.21
1044.00	59122.71
1045.00	59312.30
1046.00	59381.73
1047.00	59384.85
1048.00	59377.83
1049.00	59338.04
1050.00	59438.68
1051.00	59402.80
1052.00	59447.27
1053.00	59420.74
1054.00	59442.59
1055.00	59379.39
1056.00	59371.59
1057.00	59475.35
1058.00	59510.46
1059.00	59532.31
1060.00	59571.32
1061.00	59642.31
1062.00	59764.02
1063.00	59767.14
1064.00	59764.80
1065.00	59686.00
1066.00	59681.32
1067.00	59755.44
1068.00	59849.84
1069.00	59939.56
1070.00	59980.91
1071.00	60005.87
1072.00	60043.32
1073.00	60069.85
1074.00	60126.80
1075.00	60128.36
1076.00	60179.07
1077.00	60222.76
1078.00	60225.10
1079.00	60232.91
1080.00	60190.00
1081.00	60263.33
1082.00	60336.67
1083.00	60325.75
1084.00	60323.41
1085.00	60306.24
1086.00	60316.39
1087.00	60391.28
1088.00	60441.21
1089.00	60582.43
1090.00	60628.46
1091.00	60663.56
1092.00	60611.29
1093.00	60573.84
1094.00	60566.04
1095.00	60619.09
1096.00	60605.05
1097.00	60645.62
1098.00	60679.17
1099.00	60750.94
1100.00	60812.58
1101.00	60823.50
1102.00	60787.61
1103.00	60683.85
1104.00	60679.17
1105.00	60793.07
1106.00	60858.61
1107.00	60954.57
1108.00	60977.98
1109.00	61076.28
1110.00	61122.31
1111.00	61072.38
1112.00	61088.76
1113.00	61057.56
1114.00	61141.81
1115.00	61109.05
1116.00	61093.44
1117.00	60964.71
1118.00	60911.66
1119.00	60906.98
1120.00	61078.62
1121.00	61131.67
1122.00	61157.42
1123.00	61042.73
1124.00	61070.04
1125.00	61095.00
1126.00	61109.05
1127.00	61192.53
1128.00	61222.95
1129.00	61318.13
1130.00	61300.19
1131.00	61354.02
1132.00	61407.86
1133.00	61404.73
1134.00	61340.76
1135.00	61272.88
1136.00	61229.97
1137.00	61333.74
1138.00	61497.58
1139.00	61608.36
1140.00	61599.78
1141.00	61497.58
1142.00	61486.65
1143.00	61554.53
1144.00	61638.79
1145.00	61695.74
1146.00	61730.85
1147.00	61690.28
1148.00	61717.59
1149.00	61592.76
1150.00	61613.82
1151.00	61532.68
1152.00	61558.43
1153.00	61524.88
1154.00	61496.80
1155.00	61545.95
1156.00	61532.68
1157.00	61602.90
1158.00	61609.92
1159.00	61659.07
1160.00	61611.48
1161.00	61650.49
1162.00	61665.31
1163.00	61651.27
1164.00	61570.13
1165.00	61617.72
1166.00	61644.25
1167.00	61766.74
1168.00	61711.34
1169.00	61751.91
1170.00	61703.54
1171.00	61766.74
1172.00	61784.68
1173.00	61687.94
1174.00	61730.07
1175.00	61692.62
1176.00	61791.70
1177.00	61730.85
1178.00	61739.43
1179.00	61673.12
1180.00	61666.09
1181.00	61720.71
1182.00	61866.60
1183.00	61844.76
1184.00	61836.17
1185.00	61816.67
1186.00	61907.95
1187.00	62024.98
1188.00	62063.21
1189.00	62047.60
1190.00	61900.93
1191.00	61815.89
1192.00	61751.91
1193.00	61721.49
1194.00	61655.95
1195.00	61658.29
1196.00	61668.44
1197.00	61737.09
1198.00	61737.87
1199.00	61851.78
1200.00	61901.71
1201.00	61947.74
1202.00	61907.95
1203.00	61969.58
1204.00	61980.51
1205.00	61964.12
1206.00	61875.96
1207.00	61979.73
1208.00	62092.85
1209.00	62186.47
1210.00	62243.43
1211.00	62205.20
1212.00	62202.08
1213.00	62067.89
1214.00	61953.98
1215.00	61847.88
1216.00	61863.48
1217.00	61913.41
1218.00	61953.98
1219.00	62001.57
1220.00	62134.20
1221.00	62220.80
1222.00	62230.94
1223.00	62257.47
1224.00	62205.20
1225.00	62188.03
1226.00	62151.37
1227.00	62117.04
1228.00	61984.41
1229.00	61945.40
1230.00	61959.44
1231.00	62091.29
1232.00	62135.76
1233.00	62214.56
1234.00	62229.38
1235.00	62185.69
1236.00	62242.65
1237.00	62264.49
1238.00	62361.23
