SpectraSuite Data File
++++++++++++++++++++++++++++++++++++
Date: Thu Nov 16 14:07:00 EST 2017
User: cheriyan
Dark Spectrum Present: No
Reference Spectrum Present: No
Number of Sampled Component Spectra: 1
Spectrometers: USB2+H05261
Integration Time (usec): 100000 (USB2+H05261)
Spectra Averaged: 1 (USB2+H05261)
Boxcar Smoothing: 1 (USB2+H05261)
Correct for Electrical Dark: No (USB2+H05261)
Strobe/Lamp Enabled: No (USB2+H05261)
Correct for Detector Non-linearity: No (USB2+H05261)
Correct for Stray Light: No (USB2+H05261)
Number of Pixels in Processed Spectrum: 2048
>>>>>Begin Processed Spectral Data<<<<<
0.00	346.40
1.00	346.40
2.00	330.02
3.00	307.39
4.00	280.86
5.00	275.40
6.00	269.16
7.00	255.90
8.00	241.86
9.00	231.71
10.00	239.51
11.00	239.51
12.00	244.20
13.00	232.49
14.00	234.05
15.00	229.37
16.00	223.13
17.00	229.37
18.00	222.35
19.00	241.08
20.00	257.46
21.00	259.80
22.00	286.33
23.00	320.65
24.00	415.84
25.00	527.40
26.00	610.10
27.00	653.79
28.00	660.81
29.00	677.98
30.00	706.84
31.00	726.35
32.00	716.98
33.00	724.79
34.00	723.23
35.00	751.31
36.00	753.65
37.00	750.53
38.00	751.31
39.00	760.67
40.00	757.55
41.00	724.79
42.00	716.98
43.00	726.35
44.00	725.57
45.00	720.10
46.00	717.76
47.00	737.27
48.00	742.73
49.00	739.61
50.00	720.88
51.00	718.54
52.00	736.49
53.00	757.55
54.00	760.67
55.00	769.26
56.00	769.26
57.00	782.52
58.00	784.08
59.00	819.97
60.00	804.36
61.00	826.21
62.00	790.32
63.00	787.98
64.00	787.98
65.00	821.53
66.00	818.41
67.00	795.78
68.00	798.90
69.00	819.97
70.00	820.75
71.00	809.05
72.00	802.80
73.00	810.61
74.00	816.85
75.00	832.45
76.00	818.41
77.00	842.59
78.00	855.86
79.00	860.54
80.00	846.49
81.00	841.81
82.00	842.59
83.00	847.27
84.00	829.33
85.00	839.47
86.00	848.83
87.00	887.06
88.00	904.23
89.00	871.46
90.00	856.64
91.00	855.86
92.00	886.28
93.00	918.27
94.00	915.15
95.00	910.47
96.00	878.48
97.00	897.99
98.00	901.11
99.00	898.77
100.00	880.82
101.00	884.72
102.00	872.24
103.00	908.13
104.00	908.13
105.00	959.62
106.00	949.48
107.00	979.12
108.00	988.49
109.00	1002.53
110.00	988.49
111.00	951.04
112.00	952.60
113.00	954.16
114.00	986.93
115.00	958.84
116.00	952.60
117.00	962.74
118.00	976.78
119.00	1004.09
120.00	999.41
121.00	1025.93
122.00	1022.81
123.00	1050.90
124.00	1057.14
125.00	1060.26
126.00	1058.70
127.00	1041.54
128.00	1055.58
129.00	1057.14
130.00	1078.21
131.00	1100.83
132.00	1089.91
133.00	1086.01
134.00	1044.66
135.00	1057.92
136.00	1072.75
137.00	1124.24
138.00	1118.78
139.00	1132.04
140.00	1106.29
141.00	1118.78
142.00	1113.31
143.00	1132.04
144.00	1127.36
145.00	1111.75
146.00	1121.90
147.00	1152.32
148.00	1181.97
149.00	1188.99
150.00	1193.67
151.00	1204.60
152.00	1239.70
153.00	1227.22
154.00	1224.10
155.00	1170.27
156.00	1182.75
157.00	1199.91
158.00	1210.84
159.00	1202.26
160.00	1200.69
161.00	1221.76
162.00	1260.77
163.00	1261.55
164.00	1264.67
165.00	1228.00
166.00	1243.60
167.00	1263.89
168.00	1280.27
169.00	1279.49
170.00	1273.25
171.00	1302.90
172.00	1307.58
173.00	1345.03
174.00	1339.57
175.00	1358.29
176.00	1352.83
177.00	1357.51
178.00	1342.69
179.00	1336.45
180.00	1330.20
181.00	1365.31
182.00	1367.65
183.00	1388.72
184.00	1342.69
185.00	1362.97
186.00	1394.18
187.00	1433.97
188.00	1419.92
189.00	1409.78
190.00	1393.40
191.00	1421.49
192.00	1436.31
193.00	1480.78
194.00	1472.20
195.00	1466.74
196.00	1455.81
197.00	1483.90
198.00	1498.72
199.00	1517.45
200.00	1522.13
201.00	1535.39
202.00	1563.48
203.00	1569.72
204.00	1581.42
205.00	1560.36
206.00	1555.68
207.00	1539.29
208.00	1570.50
209.00	1582.98
210.00	1604.83
211.00	1601.71
212.00	1636.81
213.00	1646.18
214.00	1671.92
215.00	1700.01
216.00	1714.05
217.00	1699.23
218.00	1701.57
219.00	1694.55
220.00	1690.65
221.00	1668.80
222.00	1706.25
223.00	1749.94
224.00	1733.56
225.00	1691.43
226.00	1665.68
227.00	1680.50
228.00	1703.91
229.00	1733.56
230.00	1801.43
231.00	1820.16
232.00	1815.48
233.00	1791.29
234.00	1858.39
235.00	1871.65
236.00	1874.77
237.00	1863.85
238.00	1866.97
239.00	1865.41
240.00	1852.92
241.00	1881.79
242.00	1928.60
243.00	1952.01
244.00	1998.82
245.00	1965.27
246.00	1956.69
247.00	1932.50
248.00	1994.92
249.00	1979.31
250.00	1987.90
251.00	1958.25
252.00	2013.64
253.00	2011.30
254.00	2064.35
255.00	2109.60
256.00	2168.90
257.00	2157.19
258.00	2108.82
259.00	2076.06
260.00	2080.74
261.00	2122.09
262.00	2150.95
263.00	2179.82
264.00	2170.46
265.00	2200.10
266.00	2175.92
267.00	2225.85
268.00	2236.77
269.00	2267.20
270.00	2255.50
271.00	2254.72
272.00	2302.31
273.00	2351.46
274.00	2379.54
275.00	2363.16
276.00	2350.68
277.00	2326.49
278.00	2337.42
279.00	2375.64
280.00	2416.21
281.00	2446.64
282.00	2391.25
283.00	2405.29
284.00	2402.17
285.00	2470.83
286.00	2453.66
287.00	2498.91
288.00	2476.29
289.00	2529.34
290.00	2518.42
291.00	2513.74
292.00	2485.65
293.00	2492.67
294.00	2536.36
295.00	2537.14
296.00	2523.10
297.00	2495.79
298.00	2517.64
299.00	2533.24
300.00	2539.48
301.00	2545.72
302.00	2554.30
303.00	2596.43
304.00	2597.21
305.00	2609.70
306.00	2598.77
307.00	2629.20
308.00	2647.15
309.00	2657.29
310.00	2677.57
311.00	2647.93
312.00	2643.25
313.00	2617.50
314.00	2633.88
315.00	2698.64
316.00	2725.16
317.00	2741.55
318.00	2700.20
319.00	2699.42
320.00	2726.72
321.00	2711.90
322.00	2731.41
323.00	2715.02
324.00	2771.97
325.00	2771.19
326.00	2821.91
327.00	2823.47
328.00	2842.97
329.00	2874.96
330.00	2931.91
331.00	2932.69
332.00	2896.02
333.00	2904.60
334.00	2930.35
335.00	2977.94
336.00	2984.18
337.00	3016.17
338.00	3010.71
339.00	3010.71
340.00	3029.43
341.00	3067.66
342.00	3073.90
343.00	3105.11
344.00	3092.63
345.00	3123.83
346.00	3126.18
347.00	3134.76
348.00	3157.38
349.00	3148.80
350.00	3165.96
351.00	3169.87
352.00	3172.21
353.00	3179.23
354.00	3175.33
355.00	3187.81
356.00	3222.92
357.00	3258.81
358.00	3315.76
359.00	3322.00
360.00	3293.91
361.00	3290.01
362.00	3320.44
363.00	3374.27
364.00	3356.33
365.00	3323.56
366.00	3300.16
367.00	3349.31
368.00	3454.63
369.00	3463.99
370.00	3435.13
371.00	3382.85
372.00	3426.54
373.00	3486.62
374.00	3541.23
375.00	3560.74
376.00	3555.27
377.00	3570.10
378.00	3601.30
379.00	3651.24
380.00	3622.37
381.00	3619.25
382.00	3648.90
383.00	3694.15
384.00	3673.08
385.00	3665.28
386.00	3746.42
387.00	3854.08
388.00	3913.38
389.00	3889.97
390.00	3921.96
391.00	3917.28
392.00	3927.42
393.00	3918.06
394.00	3946.92
395.00	3971.89
396.00	4015.58
397.00	4046.79
398.00	4089.70
399.00	4131.83
400.00	4185.66
401.00	4227.01
402.00	4210.62
403.00	4200.48
404.00	4212.96
405.00	4257.43
406.00	4312.05
407.00	4257.43
408.00	4206.72
409.00	4208.28
410.00	4314.39
411.00	4407.23
412.00	4416.59
413.00	4355.74
414.00	4361.98
415.00	4365.88
416.00	4475.88
417.00	4415.81
418.00	4427.51
419.00	4384.60
420.00	4402.55
421.00	4430.63
422.00	4392.41
423.00	4379.92
424.00	4333.11
425.00	4390.84
426.00	4476.66
427.00	4506.31
428.00	4460.28
429.00	4439.22
430.00	4457.16
431.00	4468.08
432.00	4471.98
433.00	4461.06
434.00	4522.70
435.00	4550.78
436.00	4601.49
437.00	4630.36
438.00	4707.60
439.00	4733.34
440.00	4776.25
441.00	4780.93
442.00	4749.73
443.00	4713.06
444.00	4666.25
445.00	4757.53
446.00	4761.43
447.00	4796.54
448.00	4733.34
449.00	4769.23
450.00	4794.20
451.00	4855.05
452.00	4844.91
453.00	4855.05
454.00	4847.25
455.00	4920.59
456.00	4986.90
457.00	5054.78
458.00	5068.82
459.00	5068.82
460.00	5081.30
461.00	5110.95
462.00	5127.33
463.00	5156.20
464.00	5181.95
465.00	5228.76
466.00	5275.57
467.00	5319.26
468.00	5345.78
469.00	5284.93
470.00	5296.63
471.00	5341.88
472.00	5422.24
473.00	5471.39
474.00	5474.51
475.00	5470.61
476.00	5457.35
477.00	5448.77
478.00	5512.74
479.00	5609.48
480.00	5629.77
481.00	5646.93
482.00	5566.57
483.00	5589.98
484.00	5625.09
485.00	5667.22
486.00	5692.96
487.00	5717.93
488.00	5774.88
489.00	5778.78
490.00	5774.10
491.00	5770.98
492.00	5826.37
493.00	5832.62
494.00	5848.22
495.00	5849.78
496.00	5846.66
497.00	5964.47
498.00	5976.95
499.00	6009.72
500.00	5953.54
501.00	5999.57
502.00	5999.57
503.00	5952.76
504.00	5974.61
505.00	6089.29
506.00	6241.43
507.00	6237.53
508.00	6233.63
509.00	6250.79
510.00	6303.06
511.00	6373.28
512.00	6351.43
513.00	6400.58
514.00	6337.39
515.00	6382.64
516.00	6418.53
517.00	6523.85
518.00	6514.49
519.00	6471.58
520.00	6448.18
521.00	6474.70
522.00	6494.99
523.00	6586.27
524.00	6587.83
525.00	6693.93
526.00	6601.87
527.00	6679.11
528.00	6614.35
529.00	6669.75
530.00	6657.26
531.00	6721.24
532.00	6767.27
533.00	6789.89
534.00	6826.56
535.00	6849.19
536.00	6803.16
537.00	6704.07
538.00	6707.20
539.00	6780.53
540.00	6901.46
541.00	6898.34
542.00	6984.16
543.00	7017.71
544.00	7133.17
545.00	7116.79
546.00	7155.02
547.00	7171.40
548.00	7223.67
549.00	7292.33
550.00	7261.90
551.00	7190.91
552.00	7169.06
553.00	7184.66
554.00	7300.13
555.00	7350.06
556.00	7414.04
557.00	7486.59
558.00	7460.07
559.00	7513.90
560.00	7513.12
561.00	7603.62
562.00	7613.76
563.00	7641.07
564.00	7655.89
565.00	7731.57
566.00	7874.34
567.00	7923.49
568.00	7961.72
569.00	7872.78
570.00	8004.63
571.00	8085.77
572.00	8213.72
573.00	8188.75
574.00	8191.88
575.00	8256.63
576.00	8376.78
577.00	8407.98
578.00	8458.70
579.00	8446.99
580.00	8487.56
581.00	8542.96
582.00	8656.08
583.00	8692.75
584.00	8724.74
585.00	8708.35
586.00	8809.78
587.00	8801.19
588.00	8841.76
589.00	8923.68
590.00	9037.59
591.00	9103.12
592.00	9203.77
593.00	9273.98
594.00	9430.02
595.00	9412.85
596.00	9558.75
597.00	9658.61
598.00	9828.69
599.00	9873.94
600.00	9941.04
601.00	9980.82
602.00	10022.95
603.00	10090.05
604.00	10174.31
605.00	10343.61
606.00	10348.29
607.00	10332.68
608.00	10273.39
609.00	10351.41
610.00	10494.96
611.00	10478.58
612.00	10500.42
613.00	10553.48
614.00	10714.97
615.00	10811.71
616.00	10910.80
617.00	11097.26
618.00	11236.91
619.00	11320.39
620.00	11293.08
621.00	11438.20
622.00	11609.06
623.00	11862.62
624.00	11877.44
625.00	11900.84
626.00	11809.56
627.00	11897.72
628.00	11972.62
629.00	12169.23
630.00	12295.61
631.00	12403.28
632.00	12460.23
633.00	12663.86
634.00	12750.46
635.00	12815.99
636.00	12810.53
637.00	13022.74
638.00	13227.15
639.00	13242.75
640.00	13168.63
641.00	13130.41
642.00	13266.16
643.00	13403.47
644.00	13615.68
645.00	13736.60
646.00	13774.83
647.00	13695.25
648.00	13673.41
649.00	13797.46
650.00	14015.91
651.00	14156.34
652.00	14254.64
653.00	14380.25
654.00	14566.71
655.00	14739.13
656.00	14793.75
657.00	14848.36
658.00	14840.56
659.00	14913.89
660.00	14998.93
661.00	15129.22
662.00	15326.61
663.00	15451.44
664.00	15620.74
665.00	15626.20
666.00	15797.84
667.00	15846.99
668.00	15962.45
669.00	15964.79
670.00	16048.27
671.00	16229.27
672.00	16313.53
673.00	16489.85
674.00	16440.70
675.00	16649.79
676.00	16620.92
677.00	16718.45
678.00	16700.50
679.00	16911.93
680.00	17128.04
681.00	17357.41
682.00	17542.32
683.00	17618.77
684.00	17614.09
685.00	17670.26
686.00	17694.45
687.00	17877.79
688.00	17899.64
689.00	18080.64
690.00	18174.26
691.00	18303.77
692.00	18301.43
693.00	18371.64
694.00	18394.27
695.00	18591.66
696.00	18618.96
697.00	18792.94
698.00	18963.02
699.00	19069.12
700.00	19200.19
701.00	19129.98
702.00	19176.79
703.00	19262.61
704.00	19446.73
705.00	19680.00
706.00	19722.91
707.00	19782.99
708.00	19879.73
709.00	20101.30
710.00	20314.29
711.00	20493.73
712.00	20563.17
713.00	20689.56
714.00	20737.15
715.00	20876.80
716.00	20821.41
717.00	20942.33
718.00	20936.87
719.00	21042.98
720.00	20993.04
721.00	21089.01
722.00	21240.36
723.00	21385.47
724.00	21486.90
725.00	21543.85
726.00	21594.56
727.00	21742.80
728.00	21877.77
729.00	21977.63
730.00	21984.65
731.00	21916.78
732.00	21872.31
733.00	21867.63
734.00	21919.90
735.00	22086.86
736.00	22197.64
737.00	22357.58
738.00	22436.38
739.00	22490.21
740.00	22565.10
741.00	22705.54
742.00	22874.84
743.00	23016.83
744.00	23044.13
745.00	23083.14
746.00	23161.94
747.00	23354.65
748.00	23387.41
749.00	23383.51
750.00	23392.09
751.00	23464.65
752.00	23575.44
753.00	23489.62
754.00	23495.86
755.00	23574.66
756.00	23755.66
757.00	23868.00
758.00	23777.50
759.00	23848.50
760.00	23940.56
761.00	24319.73
762.00	24535.84
763.00	24793.29
764.00	24921.24
765.00	24999.26
766.00	25085.08
767.00	25052.31
768.00	25112.39
769.00	25108.49
770.00	25308.21
771.00	25378.43
772.00	25493.12
773.00	25445.52
774.00	25525.10
775.00	25614.04
776.00	25678.80
777.00	25726.39
778.00	25705.32
779.00	25793.48
780.00	25809.87
781.00	25890.23
782.00	26067.33
783.00	26338.05
784.00	26527.63
785.00	26485.50
786.00	26620.47
787.00	26697.71
788.00	26870.13
789.00	26819.42
790.00	26959.07
791.00	27037.09
792.00	26988.72
793.00	26913.04
794.00	26963.75
795.00	27030.07
796.00	27238.37
797.00	27286.75
798.00	27537.96
799.00	27538.74
800.00	27633.14
801.00	27713.50
802.00	27852.38
803.00	28005.29
804.00	28092.67
805.00	28236.22
806.00	28300.20
807.00	28257.29
808.00	28374.31
809.00	28497.58
810.00	28726.18
811.00	28833.06
812.00	28826.04
813.00	28944.62
814.00	29049.17
815.00	29266.84
816.00	29352.66
817.00	29461.88
818.00	29512.60
819.00	29558.63
820.00	29486.85
821.00	29486.85
822.00	29515.72
823.00	29587.49
824.00	29597.63
825.00	29578.13
826.00	29532.88
827.00	29660.05
828.00	29810.62
829.00	29982.26
830.00	30204.61
831.00	30424.62
832.00	30584.56
833.00	30411.36
834.00	30440.23
835.00	30452.71
836.00	30607.97
837.00	30732.79
838.00	30899.75
839.00	31150.19
840.00	31165.01
841.00	31263.32
842.00	31210.26
843.00	31380.34
844.00	31365.52
845.00	31609.71
846.00	31702.56
847.00	31850.01
848.00	31854.69
849.00	31896.82
850.00	31957.67
851.00	31955.33
852.00	31910.08
853.00	31917.11
854.00	31904.62
855.00	31983.42
856.00	32103.57
857.00	32361.03
858.00	32435.14
859.00	32234.64
860.00	32155.84
861.00	32279.11
862.00	32652.81
863.00	32867.36
864.00	32901.69
865.00	32924.32
866.00	32926.66
867.00	33205.18
868.00	33337.81
869.00	33589.81
870.00	33582.79
871.00	33822.30
872.00	33748.96
873.00	33677.19
874.00	33490.73
875.00	33603.85
876.00	33621.80
877.00	33759.89
878.00	33765.35
879.00	33947.91
880.00	33944.01
881.00	33942.45
882.00	33752.87
883.00	33734.14
884.00	33671.73
885.00	33845.71
886.00	33862.87
887.00	34026.71
888.00	34177.28
889.00	34330.98
890.00	34448.00
891.00	34714.83
892.00	34969.16
893.00	34842.78
894.00	34742.13
895.00	34699.22
896.00	35143.92
897.00	35062.01
898.00	35006.61
899.00	34859.16
900.00	35164.21
901.00	35541.82
902.00	35845.30
903.00	35994.32
904.00	36026.31
905.00	36151.13
906.00	36115.25
907.00	36101.20
908.00	35864.81
909.00	36013.04
910.00	35736.86
911.00	35668.20
912.00	35424.01
913.00	35633.10
914.00	35762.61
915.00	35906.16
916.00	36037.23
917.00	36178.44
918.00	36350.08
919.00	36251.00
920.00	36193.26
921.00	36189.36
922.00	36389.87
923.00	36659.81
924.00	36534.98
925.00	36545.12
926.00	36497.53
927.00	36592.72
928.00	36653.57
929.00	36875.92
930.00	37135.72
931.00	37284.73
932.00	37297.22
933.00	37427.51
934.00	37412.68
935.00	37361.19
936.00	37359.63
937.00	37532.83
938.00	37418.14
939.00	37458.71
940.00	37425.95
941.00	37535.17
942.00	37483.68
943.00	37584.32
944.00	37731.78
945.00	37834.76
946.00	37819.94
947.00	37817.60
948.00	37850.36
949.00	37922.14
950.00	38057.11
951.00	38063.35
952.00	37878.45
953.00	37816.82
954.00	37728.66
955.00	38067.25
956.00	38212.37
957.00	38536.92
958.00	38648.49
959.00	38870.84
960.00	38974.60
961.00	38805.30
962.00	38843.53
963.00	38992.54
964.00	39301.50
965.00	39377.95
966.00	39455.19
967.00	39772.72
968.00	39929.54
969.00	39899.89
970.00	39970.89
971.00	39977.91
972.00	40019.26
973.00	39924.86
974.00	40126.92
975.00	40110.54
976.00	39898.33
977.00	39653.36
978.00	39516.04
979.00	39544.91
980.00	39515.26
981.00	39874.93
982.00	40040.32
983.00	40279.06
984.00	40474.88
985.00	40726.88
986.00	40611.42
987.00	40293.88
988.00	40400.77
989.00	40321.97
990.00	40602.83
991.00	40174.52
992.00	40539.64
993.00	40456.16
994.00	40914.90
995.00	41032.71
996.00	41163.78
997.00	41145.06
998.00	41127.89
999.00	41170.02
1000.00	41383.79
1001.00	41418.90
1002.00	41552.31
1003.00	41564.79
1004.00	41856.58
1005.00	41838.64
1006.00	41894.81
1007.00	41925.24
1008.00	42121.06
1009.00	42021.20
1010.00	42039.14
1011.00	41869.06
1012.00	41958.78
1013.00	41677.14
1014.00	41855.02
1015.00	41812.11
1016.00	41917.43
1017.00	41965.03
1018.00	42136.66
1019.00	42490.09
1020.00	42386.32
1021.00	42334.83
1022.00	42181.91
1023.00	42222.48
1024.00	42329.37
1025.00	42463.56
1026.00	42777.97
1027.00	42919.18
1028.00	42987.06
1029.00	42952.73
1030.00	43065.86
1031.00	43319.42
1032.00	43599.50
1033.00	43690.78
1034.00	43608.86
1035.00	43418.50
1036.00	43410.70
1037.00	43361.54
1038.00	43629.93
1039.00	43645.53
1040.00	43774.26
1041.00	43599.50
1042.00	43711.84
1043.00	43864.76
1044.00	44194.00
1045.00	44276.69
1046.00	44231.44
1047.00	44034.84
1048.00	43895.19
1049.00	43764.90
1050.00	43993.49
1051.00	44247.05
1052.00	44623.09
1053.00	44488.12
1054.00	44591.89
1055.00	44432.73
1056.00	44623.09
1057.00	44687.85
1058.00	44874.31
1059.00	44953.11
1060.00	44929.70
1061.00	44812.68
1062.00	44924.24
1063.00	44913.32
1064.00	45091.98
1065.00	45078.72
1066.00	45244.90
1067.00	45294.83
1068.00	45373.63
1069.00	45214.47
1070.00	45133.33
1071.00	44934.38
1072.00	45105.24
1073.00	45233.19
1074.00	45586.61
1075.00	45688.82
1076.00	45663.85
1077.00	45695.84
1078.00	45660.73
1079.00	45790.24
1080.00	45593.64
1081.00	45630.30
1082.00	45554.63
1083.00	45705.98
1084.00	45651.37
1085.00	45654.49
1086.00	45610.02
1087.00	45638.89
1088.00	45664.63
1089.00	45737.97
1090.00	45861.24
1091.00	46174.09
1092.00	46202.17
1093.00	46344.17
1094.00	46445.59
1095.00	46701.49
1096.00	46806.03
1097.00	46778.73
1098.00	46749.08
1099.00	46698.37
1100.00	46571.20
1101.00	46506.44
1102.00	46615.67
1103.00	46873.91
1104.00	47082.22
1105.00	47176.62
1106.00	47036.97
1107.00	46870.01
1108.00	46817.74
1109.00	46918.38
1110.00	46994.06
1111.00	46989.38
1112.00	47080.66
1113.00	47075.19
1114.00	46919.94
1115.00	46884.83
1116.00	46973.77
1117.00	47095.48
1118.00	46946.47
1119.00	46904.34
1120.00	46990.16
1121.00	47184.42
1122.00	47275.70
1123.00	47083.00
1124.00	46910.58
1125.00	46768.58
1126.00	46860.65
1127.00	47004.20
1128.00	47091.58
1129.00	47046.33
1130.00	47142.29
1131.00	47238.25
1132.00	47444.22
1133.00	47470.75
1134.00	47402.09
1135.00	47444.22
1136.00	47336.55
1137.00	47373.22
1138.00	47313.15
1139.00	47338.90
1140.00	47513.66
1141.00	47623.66
1142.00	47805.44
1143.00	47898.28
1144.00	47851.47
1145.00	47713.38
1146.00	47677.49
1147.00	47633.80
1148.00	47782.82
1149.00	47616.64
1150.00	47689.98
1151.00	47745.37
1152.00	47961.48
1153.00	48155.74
1154.00	47995.03
1155.00	47873.32
1156.00	47599.47
1157.00	47718.84
1158.00	47739.91
1159.00	47981.76
1160.00	48154.96
1161.00	48424.90
1162.00	48459.23
1163.00	48479.52
1164.00	48356.25
1165.00	48438.17
1166.00	48321.14
1167.00	48272.77
1168.00	48140.14
1169.00	48092.55
1170.00	47923.25
1171.00	47964.60
1172.00	47846.79
1173.00	47898.28
1174.00	47873.32
1175.00	48204.11
1176.00	48221.28
1177.00	48200.21
1178.00	47872.54
1179.00	48045.74
1180.00	48231.42
1181.00	48478.74
1182.00	48523.99
1183.00	48697.97
1184.00	48862.58
1185.00	48983.51
1186.00	48875.07
1187.00	48895.35
1188.00	48795.49
1189.00	48709.67
1190.00	48679.24
1191.00	48722.93
1192.00	48504.48
1193.00	48399.16
1194.00	48366.39
1195.00	48651.94
1196.00	48700.31
1197.00	48733.07
1198.00	48664.42
1199.00	48595.76
1200.00	48639.45
1201.00	48662.08
1202.00	48716.69
1203.00	48642.57
1204.00	48684.70
1205.00	48879.75
1206.00	49177.78
1207.00	49322.11
1208.00	49266.72
1209.00	49058.41
1210.00	49026.42
1211.00	48955.43
1212.00	48991.31
1213.00	48922.66
1214.00	48765.06
1215.00	48593.42
1216.00	48502.92
1217.00	48701.87
1218.00	48876.63
1219.00	48976.49
1220.00	48953.86
1221.00	48919.54
1222.00	48801.73
1223.00	48907.05
1224.00	48850.10
1225.00	48945.28
1226.00	48844.64
1227.00	48958.55
1228.00	48974.93
1229.00	48974.15
1230.00	48965.57
1231.00	49168.41
1232.00	49272.96
1233.00	49336.15
1234.00	49257.35
1235.00	49354.10
1236.00	49556.94
1237.00	49534.32
1238.00	49512.47
1239.00	49400.13
1240.00	49550.70
1241.00	49641.20
1242.00	49694.25
1243.00	49721.56
1244.00	49769.93
1245.00	49914.26
1246.00	50054.70
1247.00	50195.91
