SpectraSuite Data File
++++++++++++++++++++++++++++++++++++
Date: Thu Nov 16 14:11:53 EST 2017
User: cheriyan
Dark Spectrum Present: No
Reference Spectrum Present: No
Number of Sampled Component Spectra: 1
Spectrometers: USB2+H05261
Integration Time (usec): 100000 (USB2+H05261)
Spectra Averaged: 1 (USB2+H05261)
Boxcar Smoothing: 1 (USB2+H05261)
Correct for Electrical Dark: No (USB2+H05261)
Strobe/Lamp Enabled: No (USB2+H05261)
Correct for Detector Non-linearity: No (USB2+H05261)
Correct for Stray Light: No (USB2+H05261)
Number of Pixels in Processed Spectrum: 2048
>>>>>Begin Processed Spectral Data<<<<<
0.00	341.72
1.00	341.72
2.00	333.14
3.00	289.45
4.00	266.82
5.00	237.95
6.00	254.34
7.00	259.02
8.00	252.00
9.00	254.34
10.00	208.31
11.00	202.85
12.00	180.22
13.00	242.64
14.00	239.51
15.00	246.54
16.00	204.41
17.00	238.73
18.00	269.94
19.00	264.48
20.00	252.00
21.00	234.83
22.00	251.22
23.00	300.37
24.00	423.64
25.00	562.51
26.00	662.37
27.00	680.32
28.00	665.49
29.00	647.55
30.00	630.38
31.00	642.09
32.00	678.76
33.00	703.72
34.00	724.01
35.00	737.27
36.00	753.65
37.00	765.36
38.00	731.03
39.00	741.95
40.00	755.21
41.00	787.98
42.00	772.38
43.00	749.75
44.00	733.37
45.00	740.39
46.00	766.14
47.00	755.21
48.00	754.43
49.00	761.45
50.00	808.26
51.00	809.83
52.00	805.14
53.00	771.60
54.00	796.56
55.00	773.16
56.00	784.86
57.00	773.16
58.00	771.60
59.00	772.38
60.00	772.38
61.00	802.02
62.00	816.07
63.00	810.61
64.00	818.41
65.00	825.43
66.00	827.77
67.00	820.75
68.00	813.73
69.00	821.53
70.00	818.41
71.00	826.99
72.00	844.15
73.00	848.83
74.00	859.76
75.00	834.01
76.00	815.29
77.00	819.19
78.00	834.79
79.00	833.23
80.00	798.90
81.00	823.87
82.00	851.95
83.00	876.14
84.00	847.27
85.00	848.05
86.00	862.88
87.00	885.50
88.00	933.87
89.00	961.96
90.00	953.38
91.00	924.51
92.00	886.28
93.00	868.34
94.00	887.84
95.00	883.16
96.00	922.95
97.00	917.49
98.00	950.26
99.00	950.26
100.00	965.86
101.00	965.86
102.00	957.28
103.00	942.46
104.00	949.48
105.00	968.98
106.00	955.72
107.00	922.95
108.00	932.31
109.00	945.58
110.00	983.02
111.00	983.02
112.00	999.41
113.00	995.51
114.00	969.76
115.00	977.56
116.00	997.07
117.00	1018.91
118.00	1007.99
119.00	1015.01
120.00	1057.14
121.00	1063.38
122.00	1056.36
123.00	1035.30
124.00	1057.92
125.00	1047.00
126.00	1032.18
127.00	1036.86
128.00	1057.14
129.00	1076.65
130.00	1036.86
131.00	1024.37
132.00	1031.40
133.00	1079.77
134.00	1083.67
135.00	1078.21
136.00	1067.28
137.00	1123.46
138.00	1142.18
139.00	1145.30
140.00	1121.90
141.00	1111.75
142.00	1113.31
143.00	1110.19
144.00	1112.53
145.00	1128.92
146.00	1093.03
147.00	1121.12
148.00	1155.44
149.00	1200.69
150.00	1192.11
151.00	1160.13
152.00	1162.47
153.00	1174.95
154.00	1231.90
155.00	1242.82
156.00	1225.66
157.00	1167.93
158.00	1171.83
159.00	1212.40
160.00	1223.32
161.00	1252.97
162.00	1281.83
163.00	1299.00
164.00	1295.10
165.00	1263.89
166.00	1275.59
167.00	1252.97
168.00	1252.97
169.00	1268.57
170.00	1288.86
171.00	1308.36
172.00	1307.58
173.00	1352.05
174.00	1355.17
175.00	1332.54
176.00	1335.67
177.00	1362.19
178.00	1420.71
179.00	1423.05
180.00	1410.56
181.00	1384.82
182.00	1341.91
183.00	1365.31
184.00	1392.62
185.00	1430.85
186.00	1406.66
187.00	1419.92
188.00	1426.17
189.00	1462.83
190.00	1486.24
191.00	1478.44
192.00	1470.64
193.00	1453.47
194.00	1473.76
195.00	1461.27
196.00	1478.44
197.00	1476.10
198.00	1527.59
199.00	1527.59
200.00	1540.07
201.00	1531.49
202.00	1547.09
203.00	1577.52
204.00	1589.22
205.00	1566.60
206.00	1551.00
207.00	1551.00
208.00	1579.86
209.00	1631.35
210.00	1645.40
211.00	1657.10
212.00	1618.87
213.00	1638.38
214.00	1663.34
215.00	1694.55
216.00	1696.11
217.00	1683.63
218.00	1689.87
219.00	1684.41
220.00	1677.38
221.00	1688.31
222.00	1699.23
223.00	1729.66
224.00	1751.50
225.00	1776.47
226.00	1776.47
227.00	1737.46
228.00	1721.85
229.00	1720.29
230.00	1771.01
231.00	1802.21
232.00	1812.35
233.00	1770.23
234.00	1770.23
235.00	1768.66
236.00	1825.62
237.00	1860.73
238.00	1947.33
239.00	1946.55
240.00	1948.89
241.00	1928.60
242.00	1949.67
243.00	1908.32
244.00	1898.95
245.00	1895.05
246.00	1951.23
247.00	1973.07
248.00	1964.49
249.00	1962.93
250.00	1973.07
251.00	2019.10
252.00	2041.73
253.00	2047.97
254.00	2084.64
255.00	2114.28
256.00	2110.38
257.00	2115.06
258.00	2120.53
259.00	2136.91
260.00	2138.47
261.00	2136.13
262.00	2149.39
263.00	2195.42
264.00	2211.03
265.00	2183.72
266.00	2164.22
267.00	2214.93
268.00	2299.19
269.00	2319.47
270.00	2273.44
271.00	2282.80
272.00	2315.57
273.00	2392.03
274.00	2380.32
275.00	2385.79
276.00	2353.02
277.00	2381.89
278.00	2375.64
279.00	2429.48
280.00	2445.86
281.00	2438.84
282.00	2413.09
283.00	2434.16
284.00	2495.79
285.00	2539.48
286.00	2521.54
287.00	2491.11
288.00	2452.88
289.00	2477.07
290.00	2502.03
291.00	2524.66
292.00	2584.73
293.00	2599.56
294.00	2583.17
295.00	2538.70
296.00	2519.20
297.00	2547.28
298.00	2587.85
299.00	2598.77
300.00	2644.03
301.00	2603.46
302.00	2602.68
303.00	2616.72
304.00	2632.32
305.00	2672.89
306.00	2683.03
307.00	2690.84
308.00	2668.21
309.00	2605.02
310.00	2597.21
311.00	2642.46
312.00	2704.88
313.00	2723.60
314.00	2695.52
315.00	2707.22
316.00	2743.11
317.00	2774.32
318.00	2748.57
319.00	2759.49
320.00	2769.63
321.00	2754.81
322.00	2751.69
323.00	2750.91
324.00	2860.91
325.00	2918.65
326.00	2953.76
327.00	2937.37
328.00	2909.29
329.00	2881.98
330.00	2907.73
331.00	2914.75
332.00	2955.32
333.00	2907.73
334.00	2923.33
335.00	2942.83
336.00	2997.45
337.00	3007.59
338.00	2992.76
339.00	2988.86
340.00	3059.08
341.00	3119.93
342.00	3091.07
343.00	3080.93
344.00	3083.27
345.00	3148.80
346.00	3137.10
347.00	3122.27
348.00	3139.44
349.00	3181.57
350.00	3210.43
351.00	3201.85
352.00	3213.56
353.00	3225.26
354.00	3232.28
355.00	3222.14
356.00	3212.78
357.00	3258.03
358.00	3259.59
359.00	3370.37
360.00	3383.63
361.00	3425.76
362.00	3386.76
363.00	3393.78
364.00	3370.37
365.00	3371.15
366.00	3365.69
367.00	3396.12
368.00	3412.50
369.00	3446.05
370.00	3478.04
371.00	3474.14
372.00	3467.11
373.00	3492.86
374.00	3533.43
375.00	3569.32
376.00	3605.21
377.00	3584.14
378.00	3622.37
379.00	3619.25
380.00	3723.01
381.00	3752.66
382.00	3794.79
383.00	3804.93
384.00	3797.13
385.00	3794.79
386.00	3780.75
387.00	3836.92
388.00	3862.66
389.00	3876.71
390.00	3897.77
391.00	3857.98
392.00	3900.11
393.00	3940.68
394.00	4021.82
395.00	4056.93
396.00	4013.24
397.00	4028.06
398.00	4047.57
399.00	4158.35
400.00	4251.97
401.00	4296.44
402.00	4243.39
403.00	4218.43
404.00	4237.93
405.00	4254.31
406.00	4242.61
407.00	4216.87
408.00	4251.19
409.00	4249.63
410.00	4255.09
411.00	4310.49
412.00	4357.30
413.00	4435.32
414.00	4441.56
415.00	4464.96
416.00	4390.06
417.00	4382.26
418.00	4397.87
419.00	4444.68
420.00	4441.56
421.00	4472.76
422.00	4515.67
423.00	4537.52
424.00	4527.38
425.00	4517.23
426.00	4494.61
427.00	4493.83
428.00	4550.78
429.00	4589.79
430.00	4552.34
431.00	4493.05
432.00	4434.54
433.00	4519.57
434.00	4545.32
435.00	4611.64
436.00	4617.88
437.00	4691.21
438.00	4720.86
439.00	4716.96
440.00	4755.97
441.00	4809.02
442.00	4819.16
443.00	4802.00
444.00	4790.30
445.00	4825.40
446.00	4819.94
447.00	4828.53
448.00	4853.49
449.00	4851.15
450.00	4872.22
451.00	4948.67
452.00	4969.74
453.00	5050.10
454.00	4984.56
455.00	5036.83
456.00	5003.29
457.00	5061.02
458.00	5100.81
459.00	5093.01
460.00	5078.18
461.00	5061.80
462.00	5158.54
463.00	5223.30
464.00	5238.90
465.00	5225.64
466.00	5224.08
467.00	5272.45
468.00	5301.31
469.00	5369.19
470.00	5365.29
471.00	5366.07
472.00	5334.86
473.00	5352.03
474.00	5413.66
475.00	5431.60
476.00	5460.47
477.00	5493.24
478.00	5543.95
479.00	5607.14
480.00	5609.48
481.00	5692.96
482.00	5696.08
483.00	5728.85
484.00	5749.92
485.00	5748.36
486.00	5751.48
487.00	5675.02
488.00	5719.49
489.00	5812.33
490.00	5897.37
491.00	5970.71
492.00	5916.09
493.00	5930.92
494.00	5969.15
495.00	6001.13
496.00	6019.08
497.00	6001.91
498.00	6012.84
499.00	6060.43
500.00	6121.28
501.00	6156.39
502.00	6119.72
503.00	6030.00
504.00	6073.69
505.00	6175.11
506.00	6245.33
507.00	6323.35
508.00	6285.12
509.00	6361.58
510.00	6328.03
511.00	6324.91
512.00	6321.79
513.00	6406.05
514.00	6507.47
515.00	6540.24
516.00	6508.25
517.00	6550.38
518.00	6558.18
519.00	6529.31
520.00	6554.28
521.00	6608.11
522.00	6672.09
523.00	6674.43
524.00	6673.65
525.00	6708.76
526.00	6676.77
527.00	6717.34
528.00	6722.02
529.00	6743.08
530.00	6744.64
531.00	6740.74
532.00	6749.32
533.00	6758.69
534.00	6812.52
535.00	6878.05
536.00	6854.65
537.00	6813.30
538.00	6795.36
539.00	6860.89
540.00	6931.89
541.00	6965.43
542.00	6984.16
543.00	7096.50
544.00	7148.00
545.00	7239.28
546.00	7170.62
547.00	7144.10
548.00	7162.04
549.00	7264.24
550.00	7396.09
551.00	7396.09
552.00	7384.39
553.00	7400.77
554.00	7366.45
555.00	7388.29
556.00	7399.99
557.00	7452.27
558.00	7520.92
559.00	7563.05
560.00	7659.79
561.00	7663.69
562.00	7631.71
563.00	7632.49
564.00	7703.48
565.00	7862.64
566.00	8021.80
567.00	8030.38
568.00	7977.33
569.00	7919.59
570.00	8032.72
571.00	8226.20
572.00	8234.78
573.00	8195.78
574.00	8154.43
575.00	8253.51
576.00	8376.78
577.00	8365.07
578.00	8456.36
579.00	8449.33
580.00	8550.76
581.00	8532.81
582.00	8621.75
583.00	8696.65
584.00	8835.52
585.00	8887.01
586.00	9019.64
587.00	8982.98
588.00	8981.42
589.00	8954.89
590.00	9037.59
591.00	9177.24
592.00	9249.80
593.00	9432.36
594.00	9481.51
595.00	9608.68
596.00	9580.59
597.00	9661.73
598.00	9795.92
599.00	9958.98
600.00	10002.67
601.00	9951.96
602.00	9986.29
603.00	10115.02
604.00	10232.82
605.00	10362.33
606.00	10418.50
607.00	10474.68
608.00	10540.99
609.00	10707.95
610.00	10679.08
611.00	10611.99
612.00	10550.35
613.00	10717.31
614.00	10799.23
615.00	10907.68
616.00	11030.16
617.00	11215.07
618.00	11323.51
619.00	11316.49
620.00	11399.19
621.00	11461.60
622.00	11686.29
623.00	11894.60
624.00	12025.67
625.00	12029.57
626.00	11976.52
627.00	12031.91
628.00	12119.29
629.00	12231.64
630.00	12477.40
631.00	12658.40
632.00	12686.48
633.00	12644.35
634.00	12681.02
635.00	12865.92
636.00	13025.08
637.00	13245.09
638.00	13317.65
639.00	13315.31
640.00	13251.33
641.00	13299.70
642.00	13422.97
643.00	13533.76
644.00	13640.64
645.00	13724.12
646.00	13874.70
647.00	13865.33
648.00	13952.71
649.00	13920.73
650.00	14122.79
651.00	14280.39
652.00	14402.10
653.00	14505.86
654.00	14632.25
655.00	14828.07
656.00	14971.63
657.00	15037.16
658.00	15155.75
659.00	15345.33
660.00	15500.59
661.00	15561.44
662.00	15623.08
663.00	15669.11
664.00	15729.96
665.00	15651.94
666.00	15728.40
667.00	15892.24
668.00	16159.06
669.00	16244.10
670.00	16202.75
671.00	16209.77
672.00	16376.73
673.00	16549.93
674.00	16607.66
675.00	16682.56
676.00	16802.71
677.00	16919.73
678.00	16989.17
679.00	17108.54
680.00	17323.09
681.00	17496.28
682.00	17575.86
683.00	17662.46
684.00	17794.31
685.00	17917.58
686.00	18054.89
687.00	18226.53
688.00	18338.10
689.00	18420.80
690.00	18429.38
691.00	18555.77
692.00	18632.22
693.00	18815.57
694.00	18916.99
695.00	19050.40
696.00	19050.40
697.00	19185.37
698.00	19176.01
699.00	19259.49
700.00	19332.82
701.00	19435.81
702.00	19452.97
703.00	19545.81
704.00	19778.31
705.00	19955.41
706.00	19967.89
707.00	20074.77
708.00	20262.80
709.00	20524.16
710.00	20651.33
711.00	20818.28
712.00	20890.06
713.00	20952.48
714.00	20910.35
715.00	20930.63
716.00	20902.54
717.00	21109.29
718.00	21154.54
719.00	21336.32
720.00	21191.99
721.00	21316.04
722.00	21408.88
723.00	21719.39
724.00	21859.82
725.00	21891.03
726.00	21867.63
727.00	22043.17
728.00	22164.87
729.00	22300.62
730.00	22185.94
731.00	22119.62
732.00	22003.38
733.00	22104.02
734.00	22263.18
735.00	22430.13
736.00	22394.25
737.00	22480.85
738.00	22574.47
739.00	22650.92
740.00	22746.11
741.00	23009.81
742.00	23269.61
743.00	23258.68
744.00	23223.58
745.00	23323.44
746.00	23527.85
747.00	23527.07
748.00	23607.42
749.00	23701.04
750.00	23800.13
751.00	23724.45
752.00	23871.12
753.00	23885.17
754.00	24002.19
755.00	23939.78
756.00	24109.08
757.00	24183.98
758.00	24280.72
759.00	24393.06
760.00	24497.61
761.00	24638.82
762.00	24750.38
763.00	24875.99
764.00	24861.95
765.00	24861.17
766.00	24968.05
767.00	25011.74
768.00	25149.06
769.00	25244.24
770.00	25635.89
771.00	25609.36
772.00	25778.66
773.00	25742.77
774.00	25880.08
775.00	25920.65
776.00	25888.67
777.00	25978.39
778.00	26011.15
779.00	26146.12
780.00	26186.69
781.00	26331.81
782.00	26437.91
783.00	26798.35
784.00	26846.72
785.00	26923.18
786.00	26858.43
787.00	27012.90
788.00	27160.36
789.00	27307.81
790.00	27372.57
791.00	27381.93
792.00	27356.96
793.00	27268.80
794.00	27301.57
795.00	27314.05
796.00	27506.76
797.00	27612.86
798.00	27839.11
799.00	27986.57
800.00	28257.29
801.00	28250.27
802.00	28302.54
803.00	28233.88
804.00	28352.47
805.00	28457.79
806.00	28490.56
807.00	28472.62
808.00	28399.28
809.00	28627.87
810.00	28836.96
811.00	29059.31
812.00	29082.72
813.00	29237.19
814.00	29468.90
815.00	29713.10
816.00	29880.06
817.00	29940.13
818.00	29802.04
819.00	29734.95
820.00	29713.10
821.00	29862.90
822.00	30000.21
823.00	29961.20
824.00	29794.24
825.00	29807.50
826.00	29974.46
827.00	30183.55
828.00	30206.17
829.00	30334.90
830.00	30685.20
831.00	30781.95
832.00	30788.19
833.00	30625.13
834.00	30728.11
835.00	30793.65
836.00	31008.20
837.00	31205.58
838.00	31342.11
839.00	31496.59
840.00	31398.29
841.00	31377.22
842.00	31296.86
843.00	31488.79
844.00	31679.15
845.00	31881.22
846.00	31976.40
847.00	31988.88
848.00	31965.48
849.00	31994.34
850.00	31985.76
851.00	32055.98
852.00	32063.78
853.00	32252.58
854.00	32234.64
855.00	32343.86
856.00	32405.50
857.00	32530.33
858.00	32619.27
859.00	32770.62
860.00	32907.93
861.00	32925.10
862.00	32890.77
863.00	32990.63
864.00	33110.00
865.00	33318.31
866.00	33399.44
867.00	33579.67
868.00	33538.32
869.00	33741.94
870.00	33822.30
871.00	34144.52
872.00	34079.76
873.00	34186.64
874.00	34060.26
875.00	34192.11
876.00	34201.47
877.00	34469.07
878.00	34494.82
879.00	34620.42
880.00	34509.64
881.00	34558.01
882.00	34405.09
883.00	34473.75
884.00	34363.75
885.00	34263.10
886.00	34284.95
887.00	34377.79
888.00	34611.06
889.00	34676.60
890.00	34796.74
891.00	34936.40
892.00	35044.84
893.00	35102.57
894.00	35120.52
895.00	35142.36
896.00	35257.05
897.00	35240.67
898.00	35239.11
899.00	35314.78
900.00	35534.79
901.00	35857.01
902.00	36002.12
903.00	36215.11
904.00	36091.06
905.00	36264.26
906.00	36311.07
907.00	36308.73
908.00	36099.64
909.00	36364.90
910.00	36480.37
911.00	36569.31
912.00	36061.41
913.00	36130.85
914.00	36034.89
915.00	36251.78
916.00	36342.28
917.00	36649.67
918.00	36887.62
919.00	36840.81
920.00	36728.47
921.00	36758.89
922.00	36931.31
923.00	37081.11
924.00	37081.89
925.00	37198.13
926.00	37274.59
927.00	37161.47
928.00	37094.37
929.00	37248.07
930.00	37488.36
931.00	37717.73
932.00	37878.45
933.00	37863.63
934.00	37738.80
935.00	37602.27
936.00	37694.33
937.00	37742.70
938.00	37787.95
939.00	37883.91
940.00	38147.61
941.00	38055.55
942.00	38032.14
943.00	37918.24
944.00	38082.08
945.00	38180.38
946.00	38215.49
947.00	38360.60
948.00	38447.98
949.00	38685.15
950.00	38620.40
951.00	38426.14
952.00	37997.82
953.00	37950.23
954.00	38031.36
955.00	38266.20
956.00	38417.55
957.00	38689.84
958.00	39025.31
959.00	39219.58
960.00	39262.49
961.00	39090.07
962.00	39141.56
963.00	39205.53
964.00	39377.95
965.00	39507.46
966.00	39757.90
967.00	40212.74
968.00	40264.24
969.00	40232.25
970.00	40151.11
971.00	40368.78
972.00	40454.60
973.00	40333.67
974.00	40259.55
975.00	40300.90
976.00	40302.46
977.00	40034.08
978.00	39766.48
979.00	39668.96
980.00	39696.27
981.00	39956.85
982.00	40101.96
983.00	40492.83
984.00	40796.32
985.00	40996.04
986.00	41070.16
987.00	40688.65
988.00	40710.50
989.00	40516.23
990.00	40775.25
991.00	40593.47
992.00	40688.65
993.00	40610.64
994.00	40932.07
995.00	41152.08
996.00	41452.45
997.00	41595.22
998.00	41944.74
999.00	42087.51
1000.00	42050.84
1001.00	41894.03
1002.00	41769.98
1003.00	41673.24
1004.00	41673.24
1005.00	41828.49
1006.00	42046.16
1007.00	42116.38
1008.00	42444.84
1009.00	42520.51
1010.00	42564.20
1011.00	42217.02
1012.00	42145.25
1013.00	42167.09
1014.00	42214.68
1015.00	42259.93
1016.00	42372.28
1017.00	42722.58
1018.00	43144.66
1019.00	43264.02
1020.00	43132.17
1021.00	42976.92
1022.00	42838.83
1023.00	42755.35
1024.00	42662.50
1025.00	42850.53
1026.00	43241.40
1027.00	43578.43
1028.00	43752.41
1029.00	43717.31
1030.00	43638.51
1031.00	43704.04
1032.00	43759.44
1033.00	43813.27
1034.00	43640.07
1035.00	43484.03
1036.00	43477.01
1037.00	43580.78
1038.00	43784.40
1039.00	43911.57
1040.00	44078.53
1041.00	44263.43
1042.00	44298.54
1043.00	44378.12
1044.00	44481.88
1045.00	44612.95
1046.00	44569.26
1047.00	44309.46
1048.00	44328.97
1049.00	44368.76
1050.00	44657.42
1051.00	44813.46
1052.00	45190.28
1053.00	45102.90
1054.00	45167.66
1055.00	45003.04
1056.00	45111.49
1057.00	45119.29
1058.00	45206.67
1059.00	45240.21
1060.00	45201.99
1061.00	45102.12
1062.00	45072.48
1063.00	45068.58
1064.00	45229.29
1065.00	45387.67
1066.00	45546.83
1067.00	45826.13
1068.00	45791.80
1069.00	45662.29
1070.00	45364.26
1071.00	45607.68
1072.00	45876.06
1073.00	45996.99
1074.00	45993.09
1075.00	46055.50
1076.00	46039.90
1077.00	46034.44
1078.00	45983.72
1079.00	45928.33
1080.00	45943.94
1081.00	46025.07
1082.00	46087.49
1083.00	46050.04
1084.00	45940.04
1085.00	46032.88
1086.00	46254.45
1087.00	46472.90
1088.00	46490.84
1089.00	46607.87
1090.00	46600.85
1091.00	46743.62
1092.00	46823.98
1093.00	46923.84
1094.00	47293.64
1095.00	47237.47
1096.00	47345.14
1097.00	47228.11
1098.00	47256.98
1099.00	47310.81
1100.00	47275.70
1101.00	47342.80
1102.00	47260.88
1103.00	47285.84
1104.00	47191.44
1105.00	47264.00
1106.00	47216.41
1107.00	47256.20
1108.00	47336.55
1109.00	47455.92
1110.00	47741.47
1111.00	47592.45
1112.00	47683.73
1113.00	47487.13
1114.00	47457.48
1115.00	47253.08
1116.00	47235.91
1117.00	47302.23
1118.00	47424.71
1119.00	47491.03
1120.00	47661.89
1121.00	47604.94
1122.00	47602.60
1123.00	47350.60
1124.00	47352.94
1125.00	47259.32
1126.00	47301.45
1127.00	47373.22
1128.00	47566.71
1129.00	47640.82
1130.00	47814.02
1131.00	47686.07
1132.00	47831.97
1133.00	47683.73
1134.00	47673.59
1135.00	47757.07
1136.00	47843.67
1137.00	48122.97
1138.00	48127.66
1139.00	48218.16
1140.00	48080.06
1141.00	48082.41
1142.00	48105.03
1143.00	48220.50
1144.00	48203.33
1145.00	48157.30
1146.00	48158.08
1147.00	48169.01
1148.00	48247.80
1149.00	48181.49
1150.00	48327.38
1151.00	48349.23
1152.00	48641.79
1153.00	48620.73
1154.00	48495.90
1155.00	48209.57
1156.00	48020.77
1157.00	48118.29
1158.00	48114.39
1159.00	48311.00
1160.00	48422.56
1161.00	48742.44
1162.00	48875.85
1163.00	48942.16
1164.00	48922.66
1165.00	48902.37
1166.00	48804.07
1167.00	48634.77
1168.00	48694.85
1169.00	48712.79
1170.00	48734.63
1171.00	48583.28
1172.00	48516.96
1173.00	48630.87
1174.00	48686.26
1175.00	48737.76
1176.00	48637.89
1177.00	48505.26
1178.00	48389.80
1179.00	48302.42
1180.00	48568.46
1181.00	48863.36
1182.00	49173.10
1183.00	49230.83
1184.00	49275.30
1185.00	49173.10
1186.00	49117.70
1187.00	49191.82
1188.00	49246.43
1189.00	49191.82
1190.00	49141.11
1191.00	49095.86
1192.00	49037.34
1193.00	48944.50
1194.00	48914.86
1195.00	49013.16
1196.00	49086.50
1197.00	49171.53
1198.00	49183.24
1199.00	49232.39
1200.00	49144.23
1201.00	49169.97
1202.00	49008.48
1203.00	49305.73
1204.00	49278.42
1205.00	49459.42
1206.00	49425.87
1207.00	49542.90
1208.00	49432.89
1209.00	49238.63
1210.00	49168.41
1211.00	49063.87
1212.00	49219.13
1213.00	49234.73
1214.00	49376.72
1215.00	49237.07
1216.00	49210.54
1217.00	49306.51
1218.00	49328.35
1219.00	49452.40
1220.00	49354.88
1221.00	49411.05
1222.00	49437.58
1223.00	49484.39
1224.00	49435.24
1225.00	49380.62
1226.00	49353.32
1227.00	49440.70
1228.00	49388.42
1229.00	49365.02
1230.00	49343.95
1231.00	49521.83
1232.00	49697.38
1233.00	49773.83
1234.00	49702.06
1235.00	49572.55
1236.00	49695.81
1237.00	49695.81
1238.00	49968.88
1239.00	49996.96
1240.00	50202.93
1241.00	50253.64
1242.00	50255.98
1243.00	50246.62
1244.00	50153.78
1245.00	50177.97
1246.00	50153.00
1247.00	50270.81
