SpectraSuite Data File
++++++++++++++++++++++++++++++++++++
Date: Thu Nov 16 14:02:48 EST 2017
User: cheriyan
Dark Spectrum Present: No
Reference Spectrum Present: No
Number of Sampled Component Spectra: 1
Spectrometers: USB2+H05261
Integration Time (usec): 100000 (USB2+H05261)
Spectra Averaged: 1 (USB2+H05261)
Boxcar Smoothing: 1 (USB2+H05261)
Correct for Electrical Dark: No (USB2+H05261)
Strobe/Lamp Enabled: No (USB2+H05261)
Correct for Detector Non-linearity: No (USB2+H05261)
Correct for Stray Light: No (USB2+H05261)
Number of Pixels in Processed Spectrum: 2048
>>>>>Begin Processed Spectral Data<<<<<
0.00	367.46
1.00	367.46
2.00	337.04
3.00	299.59
4.00	267.60
5.00	259.80
6.00	269.16
7.00	269.94
8.00	261.36
9.00	252.00
10.00	262.92
11.00	275.40
12.00	277.74
13.00	270.72
14.00	283.98
15.00	285.55
16.00	238.73
17.00	227.81
18.00	226.25
19.00	241.08
20.00	264.48
21.00	262.92
22.00	305.83
23.00	328.46
24.00	512.58
25.00	646.77
26.00	781.74
27.00	809.05
28.00	853.52
29.00	855.86
30.00	805.14
31.00	784.86
32.00	782.52
33.00	830.11
34.00	859.76
35.00	890.96
36.00	918.27
37.00	912.81
38.00	888.62
39.00	881.60
40.00	913.59
41.00	970.54
42.00	963.52
43.00	942.46
44.00	947.92
45.00	946.36
46.00	972.88
47.00	981.46
48.00	1013.45
49.00	1024.37
50.00	1010.33
51.00	1044.66
52.00	1044.66
53.00	1032.18
54.00	1009.55
55.00	991.61
56.00	986.15
57.00	968.20
58.00	980.68
59.00	988.49
60.00	993.95
61.00	982.24
62.00	958.06
63.00	970.54
64.00	976.78
65.00	1036.86
66.00	1047.78
67.00	1086.01
68.00	1098.49
69.00	1078.21
70.00	1082.11
71.00	1067.28
72.00	1096.15
73.00	1086.79
74.00	1092.25
75.00	1076.65
76.00	1076.65
77.00	1082.89
78.00	1097.71
79.00	1114.88
80.00	1116.44
81.00	1109.41
82.00	1128.14
83.00	1156.22
84.00	1149.98
85.00	1133.60
86.00	1103.17
87.00	1132.82
88.00	1162.47
89.00	1210.06
90.00	1218.64
91.00	1211.62
92.00	1219.42
93.00	1238.92
94.00	1252.19
95.00	1237.36
96.00	1234.24
97.00	1220.20
98.00	1206.16
99.00	1190.55
100.00	1185.87
101.00	1192.11
102.00	1204.60
103.00	1244.38
104.00	1260.77
105.00	1291.20
106.00	1268.57
107.00	1284.95
108.00	1268.57
109.00	1296.66
110.00	1289.64
111.00	1304.46
112.00	1285.73
113.00	1302.12
114.00	1317.72
115.00	1342.69
116.00	1373.89
117.00	1401.98
118.00	1379.36
119.00	1365.31
120.00	1350.49
121.00	1398.86
122.00	1416.80
123.00	1439.43
124.00	1442.55
125.00	1433.97
126.00	1439.43
127.00	1433.19
128.00	1448.79
129.00	1461.27
130.00	1465.96
131.00	1450.35
132.00	1427.73
133.00	1451.91
134.00	1466.74
135.00	1485.46
136.00	1482.34
137.00	1523.69
138.00	1530.71
139.00	1554.12
140.00	1529.15
141.00	1536.95
142.00	1577.52
143.00	1636.03
144.00	1672.70
145.00	1644.62
146.00	1611.07
147.00	1617.31
148.00	1626.67
149.00	1671.14
150.00	1668.02
151.00	1671.14
152.00	1652.42
153.00	1675.04
154.00	1710.15
155.00	1726.54
156.00	1705.47
157.00	1696.89
158.00	1712.49
159.00	1724.97
160.00	1744.48
161.00	1778.03
162.00	1804.55
163.00	1809.23
164.00	1771.79
165.00	1773.35
166.00	1796.75
167.00	1822.50
168.00	1838.88
169.00	1814.70
170.00	1817.82
171.00	1819.38
172.00	1819.38
173.00	1868.53
174.00	1902.08
175.00	1937.18
176.00	1912.22
177.00	1929.38
178.00	1958.25
179.00	2013.64
180.00	2008.18
181.00	2029.24
182.00	2005.84
183.00	2025.34
184.00	2022.22
185.00	2011.30
186.00	2016.76
187.00	2012.86
188.00	2039.39
189.00	2065.91
190.00	2054.99
191.00	2067.47
192.00	2080.74
193.00	2129.89
194.00	2141.59
195.00	2114.28
196.00	2123.65
197.00	2169.68
198.00	2199.32
199.00	2200.10
200.00	2145.49
201.00	2168.12
202.00	2147.05
203.00	2208.69
204.00	2205.56
205.00	2262.52
206.00	2275.78
207.00	2275.78
208.00	2300.75
209.00	2266.42
210.00	2305.43
211.00	2302.31
212.00	2322.59
213.00	2321.81
214.00	2387.35
215.00	2401.39
216.00	2412.31
217.00	2367.84
218.00	2416.99
219.00	2455.22
220.00	2477.07
221.00	2478.63
222.00	2456.00
223.00	2482.53
224.00	2525.44
225.00	2589.41
226.00	2601.12
227.00	2583.95
228.00	2574.59
229.00	2578.49
230.00	2609.70
231.00	2597.21
232.00	2630.76
233.00	2625.30
234.00	2679.13
235.00	2711.90
236.00	2764.95
237.00	2746.23
238.00	2711.12
239.00	2688.50
240.00	2736.87
241.00	2765.73
242.00	2828.93
243.00	2797.72
244.00	2846.09
245.00	2874.96
246.00	2897.58
247.00	2907.73
248.00	2918.65
249.00	2951.42
250.00	2995.89
251.00	3005.25
252.00	3063.76
253.00	3058.30
254.00	3043.48
255.00	3069.22
256.00	3090.29
257.00	3144.12
258.00	3183.91
259.00	3215.12
260.00	3223.70
261.00	3173.77
262.00	3201.85
263.00	3242.42
264.00	3297.81
265.00	3275.19
266.00	3268.17
267.00	3318.88
268.00	3375.83
269.00	3435.13
270.00	3432.79
271.00	3502.22
272.00	3488.96
273.00	3519.39
274.00	3463.99
275.00	3527.19
276.00	3564.64
277.00	3576.34
278.00	3512.36
279.00	3470.23
280.00	3502.22
281.00	3570.10
282.00	3642.65
283.00	3665.28
284.00	3647.33
285.00	3650.46
286.00	3717.55
287.00	3769.82
288.00	3823.66
289.00	3769.82
290.00	3698.83
291.00	3637.97
292.00	3694.93
293.00	3815.07
294.00	3921.18
295.00	3940.68
296.00	3922.74
297.00	3834.58
298.00	3865.78
299.00	3874.37
300.00	3900.89
301.00	3856.42
302.00	3900.89
303.00	3982.81
304.00	4027.28
305.00	4047.57
306.00	4020.26
307.00	4036.64
308.00	3989.83
309.00	3936.00
310.00	3929.76
311.00	3980.47
312.00	4038.20
313.00	4087.36
314.00	4122.46
315.00	4125.58
316.00	4101.40
317.00	4073.31
318.00	4127.92
319.00	4179.42
320.00	4300.34
321.00	4269.14
322.00	4273.04
323.00	4268.36
324.00	4366.66
325.00	4423.61
326.00	4406.45
327.00	4447.02
328.00	4408.79
329.00	4457.16
330.00	4431.41
331.00	4468.08
332.00	4476.66
333.00	4473.54
334.00	4496.95
335.00	4532.84
336.00	4631.14
337.00	4641.28
338.00	4653.77
339.00	4654.55
340.00	4693.55
341.00	4735.68
342.00	4734.12
343.00	4778.59
344.00	4794.20
345.00	4876.90
346.00	4894.06
347.00	4877.68
348.00	4870.65
349.00	4897.96
350.00	4965.06
351.00	4986.12
352.00	4987.68
353.00	5011.09
354.00	5050.10
355.00	5050.10
356.00	5022.01
357.00	5041.51
358.00	5068.82
359.00	5109.39
360.00	5107.83
361.00	5190.53
362.00	5182.73
363.00	5214.71
364.00	5210.81
365.00	5231.10
366.00	5216.27
367.00	5232.66
368.00	5288.05
369.00	5311.46
370.00	5325.50
371.00	5372.31
372.00	5407.42
373.00	5435.50
374.00	5419.12
375.00	5423.02
376.00	5388.69
377.00	5387.91
378.00	5423.02
379.00	5508.84
380.00	5591.54
381.00	5660.20
382.00	5690.62
383.00	5735.87
384.00	5731.97
385.00	5735.09
386.00	5767.86
387.00	5874.74
388.00	6015.96
389.00	6070.57
390.00	6095.54
391.00	6086.17
392.00	6120.50
393.00	6179.79
394.00	6217.24
395.00	6298.38
396.00	6349.09
397.00	6460.66
398.00	6472.36
399.00	6541.80
400.00	6491.09
401.00	6571.44
402.00	6565.20
403.00	6640.88
404.00	6617.47
405.00	6631.52
406.00	6694.71
407.00	6710.32
408.00	6627.62
409.00	6531.66
410.00	6566.76
411.00	6718.12
412.00	6864.79
413.00	6831.24
414.00	6842.17
415.00	6834.36
416.00	6899.12
417.00	6874.93
418.00	6896.00
419.00	6839.05
420.00	6868.69
421.00	6843.73
422.00	6929.55
423.00	7003.66
424.00	7028.63
425.00	7065.30
426.00	7032.53
427.00	7076.22
428.00	7091.04
429.00	7114.45
430.00	7118.35
431.00	7078.56
432.00	7052.03
433.00	7026.29
434.00	7135.51
435.00	7215.09
436.00	7261.90
437.00	7279.07
438.00	7246.30
439.00	7263.46
440.00	7269.70
441.00	7326.66
442.00	7384.39
443.00	7445.24
444.00	7510.00
445.00	7588.02
446.00	7625.47
447.00	7603.62
448.00	7630.93
449.00	7635.61
450.00	7681.64
451.00	7698.80
452.00	7732.35
453.00	7862.64
454.00	7900.87
455.00	7930.52
456.00	7886.05
457.00	7914.13
458.00	7998.39
459.00	8053.78
460.00	8073.29
461.00	8081.09
462.00	8169.25
463.00	8204.36
464.00	8279.26
465.00	8174.71
466.00	8236.35
467.00	8259.75
468.00	8296.42
469.00	8323.73
470.00	8318.26
471.00	8417.35
472.00	8460.26
473.00	8509.41
474.00	8661.54
475.00	8714.59
476.00	8831.62
477.00	8892.48
478.00	8920.56
479.00	8920.56
480.00	8812.12
481.00	8804.32
482.00	8762.97
483.00	8796.51
484.00	8937.73
485.00	8985.32
486.00	9035.25
487.00	9014.18
488.00	9087.52
489.00	9183.48
490.00	9227.95
491.00	9278.66
492.00	9323.91
493.00	9398.81
494.00	9405.83
495.00	9326.25
496.00	9309.87
497.00	9320.79
498.00	9378.53
499.00	9429.24
500.00	9456.54
501.00	9561.87
502.00	9641.45
503.00	9741.31
504.00	9795.92
505.00	9813.87
506.00	9856.00
507.00	9872.38
508.00	9937.91
509.00	9970.68
510.00	10083.81
511.00	10068.20
512.00	10163.39
513.00	10122.82
514.00	10170.41
515.00	10228.14
516.00	10330.34
517.00	10439.57
518.00	10412.26
519.00	10336.59
520.00	10406.02
521.00	10423.97
522.00	10520.71
523.00	10445.03
524.00	10482.48
525.00	10542.55
526.00	10580.00
527.00	10648.66
528.00	10617.45
529.00	10626.81
530.00	10594.82
531.00	10684.55
532.00	10742.28
533.00	10848.38
534.00	10852.28
535.00	10913.14
536.00	10874.91
537.00	10862.43
538.00	10867.11
539.00	10928.74
540.00	11062.15
541.00	11084.00
542.00	11066.83
543.00	11088.68
544.00	11210.39
545.00	11313.37
546.00	11315.71
547.00	11329.75
548.00	11437.42
549.00	11581.75
550.00	11585.65
551.00	11658.21
552.00	11650.41
553.00	11716.72
554.00	11660.55
555.00	11715.16
556.00	11735.45
557.00	11895.38
558.00	11968.72
559.00	12123.98
560.00	12177.03
561.00	12244.12
562.00	12152.84
563.00	12168.45
564.00	12226.18
565.00	12493.78
566.00	12653.72
567.00	12653.72
568.00	12617.05
569.00	12530.45
570.00	12684.92
571.00	12781.67
572.00	13039.90
573.00	13055.51
574.00	13128.84
575.00	13037.56
576.00	13265.38
577.00	13423.75
578.00	13600.07
579.00	13511.91
580.00	13545.46
581.00	13618.02
582.00	13911.36
583.00	13995.62
584.00	14051.80
585.00	14071.30
586.00	14244.50
587.00	14303.01
588.00	14296.77
589.00	14332.66
590.00	14455.93
591.00	14706.37
592.00	14912.33
593.00	15137.02
594.00	15171.35
595.00	15233.77
596.00	15368.74
597.00	15509.17
598.00	15644.92
599.00	15612.15
600.00	15783.79
601.00	15811.88
602.00	16007.70
603.00	16072.46
604.00	16397.79
605.00	16663.83
606.00	16795.68
607.00	16781.64
608.00	16817.53
609.00	16986.83
610.00	17085.13
611.00	17086.69
612.00	17135.06
613.00	17343.37
614.00	17491.60
615.00	17711.61
616.00	17803.68
617.00	18093.90
618.00	18152.41
619.00	18253.84
620.00	18375.55
621.00	18594.78
622.00	18749.25
623.00	18984.09
624.00	19082.39
625.00	19222.04
626.00	19184.59
627.00	19257.15
628.00	19403.82
629.00	19710.43
630.00	20002.22
631.00	20156.69
632.00	20076.34
633.00	20260.46
634.00	20601.40
635.00	20888.50
636.00	20951.70
637.00	21095.25
638.00	21246.60
639.00	21330.86
640.00	21419.80
641.00	21639.03
642.00	21953.44
643.00	22090.76
644.00	22244.45
645.00	22333.39
646.00	22456.66
647.00	22352.12
648.00	22575.25
649.00	22781.99
650.00	23108.11
651.00	23321.10
652.00	23463.09
653.00	23640.97
654.00	23744.73
655.00	23844.60
656.00	24014.68
657.00	24184.76
658.00	24497.61
659.00	24791.73
660.00	24999.26
661.00	25110.83
662.00	25235.66
663.00	25396.37
664.00	25521.20
665.00	25610.92
666.00	25614.04
667.00	25696.74
668.00	25829.37
669.00	26115.70
670.00	26372.38
671.00	26505.01
672.00	26700.05
673.00	26746.86
674.00	27001.20
675.00	27000.42
676.00	27090.14
677.00	27140.07
678.00	27350.72
679.00	27703.36
680.00	28065.36
681.00	28347.79
682.00	28639.58
683.00	28721.49
684.00	28980.51
685.00	28871.29
686.00	29050.73
687.00	29071.01
688.00	29248.11
689.00	29459.54
690.00	29628.84
691.00	29933.89
692.00	30058.72
693.00	30338.02
694.00	30575.98
695.00	30792.87
696.00	30860.74
697.00	30991.03
698.00	31073.73
699.00	31136.93
700.00	31276.58
701.00	31420.13
702.00	31557.44
703.00	31777.45
704.00	32161.30
705.00	32566.99
706.00	32904.03
707.00	33012.48
708.00	33003.11
709.00	32982.05
710.00	33070.21
711.00	33392.42
712.00	33571.86
713.00	33606.97
714.00	33667.83
715.00	33610.09
716.00	33863.65
717.00	34177.28
718.00	34474.53
719.00	34586.10
720.00	34577.51
721.00	34586.10
722.00	34743.69
723.00	34827.17
724.00	35001.15
725.00	35023.00
726.00	35019.88
727.00	35267.19
728.00	35349.89
729.00	35617.49
730.00	35636.22
731.00	35810.20
732.00	35790.69
733.00	35800.05
734.00	35861.69
735.00	35934.24
736.00	36034.11
737.00	36252.56
738.00	36511.58
739.00	36777.62
740.00	36797.12
741.00	36971.10
742.00	37070.96
743.00	37216.86
744.00	37324.52
745.00	37614.75
746.00	37842.56
747.00	38071.93
748.00	38230.31
749.00	38428.48
750.00	38526.00
751.00	38353.58
752.00	38491.67
753.00	38501.81
754.00	38789.70
755.00	38811.54
756.00	38952.76
757.00	39079.92
758.00	39254.68
759.00	39363.13
760.00	39307.74
761.00	39382.63
762.00	39609.67
763.00	39963.87
764.00	40046.57
765.00	40060.61
766.00	40250.97
767.00	40434.31
768.00	40551.34
769.00	40631.70
770.00	41024.13
771.00	41323.72
772.00	41626.43
773.00	41561.67
774.00	41716.93
775.00	41636.57
776.00	41795.73
777.00	41947.08
778.00	42153.83
779.00	42374.62
780.00	42326.25
781.00	42529.87
782.00	42430.01
783.00	42566.54
784.00	42435.47
785.00	42520.51
786.00	42770.17
787.00	43110.33
788.00	43399.77
789.00	43545.67
790.00	43569.85
791.00	43753.19
792.00	43919.37
793.00	43988.03
794.00	43996.61
795.00	43929.51
796.00	44181.51
797.00	44319.60
798.00	44472.52
799.00	44484.22
800.00	44556.00
801.00	44658.20
802.00	44978.86
803.00	45153.61
804.00	45465.69
805.00	45615.48
806.00	45735.63
807.00	45769.18
808.00	45659.95
809.00	45851.09
810.00	46099.19
811.00	46284.87
812.00	46305.16
813.00	46288.77
814.00	46513.47
815.00	46692.91
816.00	46761.56
817.00	46792.77
818.00	46908.24
819.00	47037.75
820.00	47042.43
821.00	47143.85
822.00	47153.99
823.00	47357.62
824.00	47366.20
825.00	47554.22
826.00	47707.14
827.00	47940.41
828.00	48018.43
829.00	47943.53
830.00	48022.33
831.00	48078.50
832.00	48174.47
833.00	48144.04
834.00	48329.72
835.00	48419.44
836.00	48546.61
837.00	48678.46
838.00	48902.37
839.00	49180.12
840.00	49245.65
841.00	49425.09
842.00	49592.05
843.00	49826.88
844.00	50103.85
845.00	50128.03
846.00	50174.84
847.00	50130.37
848.00	50227.12
849.00	50259.88
850.00	50305.13
851.00	50364.43
852.00	50428.40
853.00	50521.24
854.00	50682.74
855.00	50759.98
856.00	50773.24
857.00	50775.58
858.00	50990.13
859.00	51168.79
860.00	51235.89
861.00	51256.17
862.00	51349.79
863.00	51373.20
864.00	51407.53
865.00	51299.08
866.00	51449.66
867.00	51462.92
868.00	51520.65
869.00	51668.11
870.00	51782.79
871.00	51963.79
872.00	51801.52
873.00	51849.11
874.00	51966.13
875.00	52119.05
876.00	52303.17
877.00	52332.04
878.00	52506.80
879.00	52575.45
880.00	52719.79
881.00	52736.95
882.00	52758.80
883.00	52767.38
884.00	52734.61
885.00	52592.62
886.00	52677.66
887.00	52886.74
888.00	53140.30
889.00	53084.13
890.00	53068.53
891.00	53150.45
892.00	53158.25
893.00	53168.39
894.00	53096.61
895.00	53217.54
896.00	53247.19
897.00	53223.00
898.00	53302.58
899.00	53411.81
900.00	53676.29
901.00	53680.97
902.00	53876.79
903.00	53939.21
904.00	54268.44
905.00	54293.41
906.00	54294.19
907.00	54130.35
908.00	54023.47
909.00	54226.31
910.00	54199.79
911.00	54326.17
912.00	54103.82
913.00	54142.05
914.00	54105.38
915.00	54256.74
916.00	54201.35
917.00	54163.90
918.00	54128.01
919.00	54067.94
920.00	54149.85
921.00	54222.41
922.00	54540.72
923.00	54594.56
924.00	54612.50
925.00	54730.31
926.00	54947.98
927.00	55103.23
928.00	54986.99
929.00	54963.58
930.00	54997.13
931.00	55120.40
932.00	55197.63
933.00	55195.29
934.00	55153.94
935.00	55132.10
936.00	55232.74
937.00	55380.20
938.00	55331.82
939.00	55309.98
940.00	55235.08
941.00	55313.10
942.00	55398.92
943.00	55604.11
944.00	55672.76
945.00	55747.66
946.00	55749.22
947.00	55799.15
948.00	55877.17
949.00	55930.22
950.00	56148.67
951.00	56190.80
952.00	56169.74
953.00	56122.15
954.00	56171.30
955.00	56341.38
956.00	56318.75
957.00	56275.84
958.00	56339.04
959.00	56473.23
960.00	56536.42
961.00	56445.92
962.00	56515.36
963.00	56595.71
964.00	56750.97
965.00	56789.98
966.00	56918.71
967.00	57146.52
968.00	57213.62
969.00	57139.50
970.00	57141.84
971.00	57272.13
972.00	57388.38
973.00	57258.87
974.00	57204.25
975.00	57212.84
976.00	57272.13
977.00	57219.86
978.00	57242.48
979.00	57305.68
980.00	57377.45
981.00	57542.07
982.00	57457.81
983.00	57512.42
984.00	57541.29
985.00	57602.92
986.00	57589.66
987.00	57357.95
988.00	57425.82
989.00	57379.79
990.00	57674.70
991.00	57687.96
992.00	57881.45
993.00	57854.14
994.00	58063.23
995.00	58188.06
996.00	58281.68
997.00	58318.35
998.00	58367.50
999.00	58504.03
1000.00	58555.52
1001.00	58584.39
1002.00	58426.01
1003.00	58334.73
1004.00	58280.12
1005.00	58273.88
1006.00	58271.54
1007.00	58276.22
1008.00	58419.77
1009.00	58404.95
1010.00	58465.02
1011.00	58443.18
1012.00	58610.92
1013.00	58635.10
1014.00	58713.12
1015.00	58641.34
1016.00	58675.67
1017.00	58797.38
1018.00	58917.53
1019.00	59059.52
1020.00	58999.44
1021.00	59135.98
1022.00	59179.67
1023.00	59231.16
1024.00	59120.37
1025.00	59124.27
1026.00	59174.98
1027.00	59304.49
1028.00	59373.15
1029.00	59317.76
1030.00	59311.52
1031.00	59380.95
1032.00	59555.71
1033.00	59644.65
1034.00	59650.89
1035.00	59600.96
1036.00	59549.47
1037.00	59513.58
1038.00	59571.32
1039.00	59607.20
1040.00	59654.79
1041.00	59657.13
1042.00	59725.79
1043.00	59782.74
1044.00	59934.10
1045.00	60072.97
1046.00	60095.60
1047.00	60090.13
1048.00	60172.83
1049.00	60175.17
1050.00	60209.50
1051.00	60093.25
1052.00	60158.79
1053.00	60184.54
1054.00	60168.15
1055.00	60126.80
1056.00	60082.33
1057.00	60221.20
1058.00	60391.28
1059.00	60496.61
1060.00	60501.29
1061.00	60419.37
1062.00	60489.59
1063.00	60542.64
1064.00	60582.43
1065.00	60542.64
1066.00	60470.08
1067.00	60576.97
1068.00	60593.35
1069.00	60663.56
1070.00	60608.17
1071.00	60621.44
1072.00	60652.64
1073.00	60747.04
1074.00	60882.02
1075.00	60978.76
1076.00	61063.02
1077.00	61067.70
1078.00	61086.42
1079.00	61053.65
1080.00	61073.16
1081.00	61147.28
1082.00	61187.06
1083.00	61287.71
1084.00	61250.26
1085.00	61201.11
1086.00	61070.82
1087.00	61081.74
1088.00	61116.85
1089.00	61218.27
1090.00	61243.24
1091.00	61352.46
1092.00	61399.27
1093.00	61425.02
1094.00	61435.16
1095.00	61338.42
1096.00	61302.53
1097.00	61315.01
1098.00	61408.64
1099.00	61490.55
1100.00	61514.74
1101.00	61563.11
1102.00	61552.19
1103.00	61616.94
1104.00	61659.07
1105.00	61787.80
1106.00	61801.07
1107.00	61825.25
1108.00	61825.25
1109.00	61861.92
1110.00	61929.79
1111.00	61823.69
1112.00	61757.38
1113.00	61684.04
1114.00	61730.85
1115.00	61760.50
1116.00	61718.37
1117.00	61777.66
1118.00	61797.94
1119.00	61765.18
1120.00	61752.69
1121.00	61793.26
1122.00	61985.19
1123.00	61968.80
1124.00	61994.55
1125.00	61871.28
1126.00	61887.67
1127.00	61882.98
1128.00	61990.65
1129.00	62031.22
1130.00	62007.03
1131.00	61970.36
1132.00	62017.17
1133.00	61950.08
1134.00	61878.30
1135.00	61758.16
1136.00	61862.70
1137.00	62062.43
1138.00	62241.09
1139.00	62298.82
1140.00	62252.01
1141.00	62299.60
1142.00	62327.69
1143.00	62378.40
1144.00	62345.63
1145.00	62351.09
1146.00	62367.48
1147.00	62360.45
1148.00	62374.50
1149.00	62344.85
1150.00	62309.74
1151.00	62319.88
1152.00	62290.24
1153.00	62287.12
1154.00	62157.61
1155.00	62123.28
1156.00	62123.28
1157.00	62139.66
1158.00	62156.83
1159.00	62273.85
1160.00	62432.23
1161.00	62560.18
1162.00	62583.58
1163.00	62474.36
1164.00	62397.90
1165.00	62363.57
1166.00	62362.79
1167.00	62479.82
1168.00	62543.80
1169.00	62642.10
1170.00	62588.27
1171.00	62540.67
1172.00	62456.42
1173.00	62394.78
1174.00	62344.07
1175.00	62445.49
1176.00	62464.22
1177.00	62486.06
1178.00	62502.45
1179.00	62544.58
1180.00	62577.34
1181.00	62483.72
1182.00	62468.12
1183.00	62457.98
1184.00	62525.85
1185.00	62519.61
1186.00	62605.43
1187.00	62724.80
1188.00	62756.78
1189.00	62719.34
1190.00	62643.66
1191.00	62599.19
1192.00	62396.34
1193.00	62293.36
1194.00	62292.58
1195.00	62440.81
1196.00	62494.64
1197.00	62541.45
1198.00	62542.24
1199.00	62595.29
1200.00	62622.59
1201.00	62710.75
1202.00	62693.59
1203.00	62710.75
1204.00	62659.26
1205.00	62640.54
1206.00	62556.28
1207.00	62611.67
1208.00	62579.68
1209.00	62651.46
1210.00	62682.67
1211.00	62857.43
1212.00	62976.01
1213.00	62937.01
1214.00	62738.84
1215.00	62543.80
1216.00	62543.02
1217.00	62587.49
1218.00	62703.73
1219.00	62743.52
1220.00	62841.04
1221.00	62831.68
1222.00	62823.88
1223.00	62879.27
1224.00	62862.89
1225.00	62809.84
1226.00	62758.34
1227.00	62761.47
1228.00	62714.65
1229.00	62674.87
1230.00	62713.09
1231.00	62839.48
1232.00	62853.53
1233.00	62927.64
1234.00	62897.22
1235.00	62940.13
1236.00	62956.51
1237.00	63054.03
1238.00	63086.02
