SpectraSuite Data File
++++++++++++++++++++++++++++++++++++
Date: Thu Nov 16 14:02:18 EST 2017
User: cheriyan
Dark Spectrum Present: No
Reference Spectrum Present: No
Number of Sampled Component Spectra: 1
Spectrometers: USB2+H05261
Integration Time (usec): 100000 (USB2+H05261)
Spectra Averaged: 1 (USB2+H05261)
Boxcar Smoothing: 1 (USB2+H05261)
Correct for Electrical Dark: No (USB2+H05261)
Strobe/Lamp Enabled: No (USB2+H05261)
Correct for Detector Non-linearity: No (USB2+H05261)
Correct for Stray Light: No (USB2+H05261)
Number of Pixels in Processed Spectrum: 2048
>>>>>Begin Processed Spectral Data<<<<<
0.00	339.38
1.00	339.38
2.00	328.46
3.00	322.99
4.00	308.17
5.00	291.79
6.00	274.62
7.00	249.66
8.00	221.57
9.00	223.91
10.00	237.17
11.00	262.92
12.00	263.70
13.00	261.36
14.00	284.77
15.00	297.25
16.00	283.98
17.00	280.08
18.00	262.92
19.00	301.93
20.00	302.71
21.00	319.87
22.00	349.52
23.00	404.91
24.00	540.66
25.00	642.09
26.00	747.41
27.00	768.48
28.00	795.78
29.00	804.36
30.00	800.46
31.00	817.63
32.00	805.92
33.00	858.98
34.00	850.39
35.00	895.64
36.00	877.70
37.00	903.45
38.00	905.01
39.00	931.53
40.00	937.77
41.00	947.14
42.00	947.92
43.00	945.58
44.00	963.52
45.00	968.98
46.00	979.12
47.00	975.22
48.00	985.37
49.00	992.39
50.00	993.95
51.00	973.66
52.00	975.22
53.00	944.02
54.00	958.06
55.00	985.37
56.00	997.07
57.00	987.71
58.00	973.66
59.00	996.29
60.00	1015.01
61.00	1015.79
62.00	999.41
63.00	983.81
64.00	956.50
65.00	979.90
66.00	993.95
67.00	1028.28
68.00	1022.03
69.00	1042.32
70.00	1062.60
71.00	1078.21
72.00	1089.91
73.00	1076.65
74.00	1074.31
75.00	1051.68
76.00	1027.50
77.00	1047.00
78.00	1092.25
79.00	1138.28
80.00	1118.78
81.00	1111.75
82.00	1089.91
83.00	1125.80
84.00	1097.71
85.00	1123.46
86.00	1116.44
87.00	1135.16
88.00	1152.32
89.00	1164.81
90.00	1199.91
91.00	1207.72
92.00	1223.32
93.00	1212.40
94.00	1208.50
95.00	1216.30
96.00	1238.92
97.00	1256.09
98.00	1262.33
99.00	1254.53
100.00	1258.43
101.00	1253.75
102.00	1220.98
103.00	1235.02
104.00	1244.38
105.00	1295.10
106.00	1303.68
107.00	1308.36
108.00	1295.88
109.00	1263.89
110.00	1267.79
111.00	1303.68
112.00	1355.17
113.00	1369.99
114.00	1352.05
115.00	1345.81
116.00	1344.25
117.00	1355.17
118.00	1354.39
119.00	1390.28
120.00	1398.86
121.00	1422.27
122.00	1405.10
123.00	1402.76
124.00	1390.28
125.00	1416.02
126.00	1460.49
127.00	1472.98
128.00	1433.97
129.00	1412.12
130.00	1412.90
131.00	1456.59
132.00	1470.64
133.00	1490.14
134.00	1497.94
135.00	1530.71
136.00	1549.43
137.00	1554.90
138.00	1526.03
139.00	1534.61
140.00	1526.03
141.00	1540.85
142.00	1551.78
143.00	1575.96
144.00	1618.09
145.00	1613.41
146.00	1629.01
147.00	1631.35
148.00	1651.64
149.00	1709.37
150.00	1707.03
151.00	1691.43
152.00	1665.68
153.00	1694.55
154.00	1707.81
155.00	1678.94
156.00	1663.34
157.00	1667.24
158.00	1747.60
159.00	1756.96
160.00	1760.86
161.00	1718.73
162.00	1746.82
163.00	1788.17
164.00	1756.18
165.00	1755.40
166.00	1714.83
167.00	1748.38
168.00	1748.38
169.00	1824.06
170.00	1865.41
171.00	1906.76
172.00	1920.02
173.00	1910.66
174.00	1909.10
175.00	1905.98
176.00	1952.01
177.00	1941.86
178.00	1959.81
179.00	1931.72
180.00	1948.11
181.00	1959.81
182.00	2001.16
183.00	2009.74
184.00	1987.89
185.00	1949.67
186.00	1964.49
187.00	1993.36
188.00	2050.31
189.00	2083.86
190.00	2076.06
191.00	2077.62
192.00	2030.80
193.00	2058.11
194.00	2086.98
195.00	2137.69
196.00	2166.56
197.00	2179.04
198.00	2197.76
199.00	2201.66
200.00	2204.78
201.00	2208.69
202.00	2232.09
203.00	2221.95
204.00	2248.47
205.00	2256.28
206.00	2273.44
207.00	2299.97
208.00	2312.45
209.00	2335.85
210.00	2324.93
211.00	2381.10
212.00	2385.79
213.00	2408.41
214.00	2376.42
215.00	2366.28
216.00	2381.10
217.00	2410.75
218.00	2468.48
219.00	2480.19
220.00	2452.10
221.00	2480.97
222.00	2514.52
223.00	2542.60
224.00	2530.90
225.00	2516.86
226.00	2519.20
227.00	2535.58
228.00	2553.52
229.00	2609.70
230.00	2618.28
231.00	2626.08
232.00	2631.54
233.00	2665.09
234.00	2710.34
235.00	2702.54
236.00	2730.62
237.00	2722.82
238.00	2762.61
239.00	2779.78
240.00	2820.35
241.00	2837.51
242.00	2837.51
243.00	2823.47
244.00	2857.01
245.00	2834.39
246.00	2864.04
247.00	2931.91
248.00	2993.55
249.00	3025.53
250.00	2979.50
251.00	3009.15
252.00	3031.77
253.00	3040.36
254.00	3065.32
255.00	3116.81
256.00	3151.92
257.00	3135.54
258.00	3101.99
259.00	3130.08
260.00	3187.03
261.00	3251.00
262.00	3292.35
263.00	3329.80
264.00	3311.86
265.00	3276.75
266.00	3283.77
267.00	3330.58
268.00	3397.68
269.00	3425.76
270.00	3441.37
271.00	3472.57
272.00	3505.34
273.00	3552.93
274.00	3527.19
275.00	3520.17
276.00	3498.32
277.00	3559.17
278.00	3572.44
279.00	3627.05
280.00	3660.60
281.00	3698.05
282.00	3703.51
283.00	3705.85
284.00	3721.45
285.00	3752.66
286.00	3749.54
287.00	3781.53
288.00	3731.59
289.00	3735.50
290.00	3703.51
291.00	3770.60
292.00	3827.56
293.00	3861.88
294.00	3869.69
295.00	3871.25
296.00	3855.64
297.00	3878.27
298.00	3905.57
299.00	3947.70
300.00	3953.94
301.00	3914.16
302.00	3900.89
303.00	3938.34
304.00	3982.03
305.00	4014.02
306.00	3951.60
307.00	3964.87
308.00	3976.57
309.00	4008.56
310.00	3971.11
311.00	4011.68
312.00	4006.22
313.00	4063.95
314.00	4032.74
315.00	4086.58
316.00	4083.45
317.00	4106.08
318.00	4133.39
319.00	4159.13
320.00	4158.35
321.00	4150.55
322.00	4145.87
323.00	4265.24
324.00	4326.09
325.00	4413.47
326.00	4429.85
327.00	4472.76
328.00	4429.07
329.00	4406.45
330.00	4373.68
331.00	4386.94
332.00	4392.41
333.00	4432.97
334.00	4503.19
335.00	4546.88
336.00	4578.09
337.00	4603.83
338.00	4602.27
339.00	4610.08
340.00	4628.80
341.00	4638.94
342.00	4610.86
343.00	4652.98
344.00	4692.77
345.00	4766.89
346.00	4789.52
347.00	4820.72
348.00	4846.47
349.00	4837.11
350.00	4862.85
351.00	4865.19
352.00	4925.27
353.00	4922.93
354.00	5022.01
355.00	4983.78
356.00	5054.00
357.00	5023.57
358.00	5043.85
359.00	5093.79
360.00	5121.09
361.00	5225.64
362.00	5210.81
363.00	5220.96
364.00	5173.36
365.00	5159.32
366.00	5229.54
367.00	5279.47
368.00	5342.66
369.00	5285.71
370.00	5344.22
371.00	5325.50
372.00	5391.03
373.00	5387.91
374.00	5445.65
375.00	5549.41
376.00	5589.20
377.00	5614.16
378.00	5542.39
379.00	5491.68
380.00	5561.89
381.00	5658.64
382.00	5797.51
383.00	5842.76
384.00	5882.55
385.00	5859.92
386.00	5868.50
387.00	5871.62
388.00	5912.19
389.00	5959.00
390.00	6048.72
391.00	6086.95
392.00	6083.05
393.00	6097.10
394.00	6164.19
395.00	6227.39
396.00	6260.93
397.00	6291.36
398.00	6416.19
399.00	6527.75
400.00	6568.32
401.00	6564.42
402.00	6539.46
403.00	6570.66
404.00	6591.73
405.00	6587.05
406.00	6655.70
407.00	6672.87
408.00	6622.94
409.00	6598.75
410.00	6626.06
411.00	6821.10
412.00	6881.18
413.00	6832.02
414.00	6752.45
415.00	6774.29
416.00	6848.41
417.00	6876.49
418.00	6916.28
419.00	6917.84
420.00	6960.75
421.00	6947.49
422.00	7009.12
423.00	6980.26
424.00	6997.42
425.00	6981.04
426.00	7062.96
427.00	7077.78
428.00	7164.38
429.00	7141.75
430.00	7164.38
431.00	7054.37
432.00	7061.40
433.00	7008.34
434.00	7084.80
435.00	7153.46
436.00	7300.13
437.00	7337.58
438.00	7304.81
439.00	7241.62
440.00	7260.34
441.00	7299.35
442.00	7380.49
443.00	7399.21
444.00	7429.64
445.00	7451.49
446.00	7548.23
447.00	7652.77
448.00	7655.89
449.00	7593.48
450.00	7567.73
451.00	7623.90
452.00	7706.60
453.00	7744.05
454.00	7854.06
455.00	7953.92
456.00	8021.02
457.00	7988.25
458.00	7931.30
459.00	7926.61
460.00	7942.22
461.00	8053.00
462.00	8100.59
463.00	8083.43
464.00	8115.42
465.00	8108.40
466.00	8215.28
467.00	8195.78
468.00	8269.89
469.00	8335.43
470.00	8422.03
471.00	8539.83
472.00	8517.21
473.00	8510.97
474.00	8504.73
475.00	8572.60
476.00	8677.15
477.00	8695.09
478.00	8776.23
479.00	8838.64
480.00	8837.08
481.00	8870.63
482.00	8830.06
483.00	8864.39
484.00	8871.41
485.00	8939.29
486.00	9071.92
487.00	9063.33
488.00	9057.09
489.00	9018.08
490.00	8980.64
491.00	8965.81
492.00	9023.55
493.00	9136.67
494.00	9220.15
495.00	9208.45
496.00	9305.19
497.00	9398.03
498.00	9414.41
499.00	9485.41
500.00	9479.17
501.00	9558.75
502.00	9504.14
503.00	9522.08
504.00	9598.54
505.00	9735.85
506.00	9769.40
507.00	9845.85
508.00	9837.27
509.00	10005.01
510.00	10080.69
511.00	10089.27
512.00	10104.87
513.00	10150.12
514.00	10239.84
515.00	10175.87
516.00	10107.99
517.00	10122.82
518.00	10274.95
519.00	10257.79
520.00	10309.28
521.00	10264.03
522.00	10345.95
523.00	10426.31
524.00	10491.06
525.00	10638.52
526.00	10505.10
527.00	10513.69
528.00	10450.49
529.00	10571.42
530.00	10622.91
531.00	10700.15
532.00	10780.51
533.00	10757.88
534.00	10761.78
535.00	10763.34
536.00	10771.15
537.00	10718.09
538.00	10782.07
539.00	10866.33
540.00	11007.54
541.00	11005.98
542.00	11111.30
543.00	11192.44
544.00	11275.14
545.00	11304.01
546.00	11230.67
547.00	11355.50
548.00	11409.33
549.00	11545.86
550.00	11530.26
551.00	11684.73
552.00	11761.97
553.00	11768.99
554.00	11672.25
555.00	11683.17
556.00	11705.02
557.00	11718.28
558.00	11831.41
559.00	12013.97
560.00	12162.98
561.00	12268.31
562.00	12136.46
563.00	12242.56
564.00	12200.43
565.00	12404.84
566.00	12544.49
567.00	12557.75
568.00	12671.66
569.00	12558.53
570.00	12756.70
571.00	12922.10
572.00	13025.86
573.00	12990.75
574.00	12923.66
575.00	13030.54
576.00	13231.05
577.00	13338.71
578.00	13446.38
579.00	13508.79
580.00	13540.78
581.00	13659.37
582.00	13778.73
583.00	13963.64
584.00	14035.41
585.00	14126.69
586.00	14246.06
587.00	14239.04
588.00	14230.46
589.00	14331.10
590.00	14473.87
591.00	14585.44
592.00	14705.59
593.00	14915.45
594.00	15112.84
595.00	15253.27
596.00	15296.96
597.00	15473.28
598.00	15564.56
599.00	15771.31
600.00	15736.20
601.00	15717.48
602.00	15786.13
603.00	15952.31
604.00	16216.79
605.00	16553.83
606.00	16824.55
607.00	16922.07
608.00	16936.12
609.00	16925.97
610.00	17056.26
611.00	17051.58
612.00	17145.20
613.00	17247.41
614.00	17368.34
615.00	17513.45
616.00	17529.05
617.00	17704.59
618.00	17882.47
619.00	18065.82
620.00	18245.26
621.00	18471.51
622.00	18712.58
623.00	18935.71
624.00	19035.58
625.00	19051.96
626.00	19176.79
627.00	19241.54
628.00	19435.81
629.00	19637.09
630.00	19973.35
631.00	20216.77
632.00	20123.93
633.00	20389.97
634.00	20533.52
635.00	20847.93
636.00	20803.46
637.00	21053.90
638.00	21158.44
639.00	21305.90
640.00	21362.85
641.00	21566.48
642.00	21681.94
643.00	21901.17
644.00	22017.42
645.00	22205.44
646.00	22282.68
647.00	22472.26
648.00	22565.10
649.00	22795.26
650.00	22906.82
651.00	23246.20
652.00	23328.90
653.00	23586.36
654.00	23698.70
655.00	23852.40
656.00	24011.56
657.00	24141.07
658.00	24422.71
659.00	24653.64
660.00	24922.02
661.00	25067.92
662.00	25041.39
663.00	25152.96
664.00	25234.88
665.00	25440.84
666.00	25592.98
667.00	25802.07
668.00	25967.46
669.00	26067.33
670.00	26153.15
671.00	26295.92
672.00	26480.04
673.00	26619.69
674.00	26746.08
675.00	26944.25
676.00	27161.14
677.00	27342.14
678.00	27507.54
679.00	27694.78
680.00	27857.06
681.00	27916.35
682.00	28112.95
683.00	28448.43
684.00	28758.16
685.00	28911.86
686.00	28961.79
687.00	29119.38
688.00	29238.75
689.00	29568.77
690.00	29682.67
691.00	29874.60
692.00	29827.01
693.00	30052.48
694.00	30261.57
695.00	30490.16
696.00	30660.24
697.00	30871.67
698.00	31064.37
699.00	30990.25
700.00	31154.09
701.00	31320.27
702.00	31647.94
703.00	31726.74
704.00	31843.77
705.00	32096.55
706.00	32329.04
707.00	32797.93
708.00	33000.77
709.00	33089.71
710.00	32917.29
711.00	32915.73
712.00	33149.79
713.00	33461.08
714.00	33579.67
715.00	33653.00
716.00	33732.58
717.00	34152.32
718.00	34216.29
719.00	34247.50
720.00	34295.87
721.00	34442.54
722.00	34651.63
723.00	34706.24
724.00	34981.65
725.00	34967.60
726.00	34946.54
727.00	35273.43
728.00	35471.60
729.00	35629.98
730.00	35548.06
731.00	35622.95
732.00	35682.25
733.00	35737.64
734.00	35812.54
735.00	36008.36
736.00	35965.45
737.00	36321.99
738.00	36444.48
739.00	36747.97
740.00	36639.53
741.00	36768.26
742.00	36793.22
743.00	36976.56
744.00	37096.71
745.00	37260.55
746.00	37414.24
747.00	37570.28
748.00	37936.96
749.00	38210.03
750.00	38323.93
751.00	38206.90
752.00	38362.16
753.00	38528.34
754.00	38822.47
755.00	38774.09
756.00	38934.03
757.00	38887.22
758.00	39139.22
759.00	39112.69
760.00	39078.36
761.00	39065.88
762.00	39381.07
763.00	39823.44
764.00	39870.25
765.00	39977.13
766.00	40130.05
767.00	40421.05
768.00	40286.08
769.00	40281.40
770.00	40655.89
771.00	41017.89
772.00	41301.87
773.00	41102.15
774.00	41293.29
775.00	41345.56
776.00	41571.04
777.00	41929.92
778.00	42055.53
779.00	42210.00
780.00	41824.59
781.00	41922.90
782.00	41936.16
783.00	42246.67
784.00	42397.24
785.00	42625.84
786.00	42988.62
787.00	43203.95
788.00	43507.44
789.00	43657.23
790.00	43632.27
791.00	43718.87
792.00	43641.63
793.00	43843.70
794.00	43879.58
795.00	43987.25
796.00	44219.74
797.00	44302.44
798.00	44420.25
799.00	44370.32
800.00	44474.86
801.00	44625.43
802.00	44733.88
803.00	44912.54
804.00	45117.73
805.00	45463.35
806.00	45628.74
807.00	45579.59
808.00	45566.33
809.00	45581.15
810.00	45829.25
811.00	45837.83
812.00	46020.39
813.00	46103.09
814.00	46306.72
815.00	46435.45
816.00	46605.53
817.00	46787.31
818.00	46866.89
819.00	46963.63
820.00	46984.69
821.00	47136.83
822.00	47160.23
823.00	47114.98
824.00	47127.47
825.00	47243.71
826.00	47601.82
827.00	47856.93
828.00	48012.19
829.00	47953.68
830.00	47871.76
831.00	47984.10
832.00	48149.50
833.00	48341.42
834.00	48318.80
835.00	48445.97
836.00	48442.85
837.00	48508.38
838.00	48737.76
839.00	48807.19
840.00	48942.16
841.00	48952.30
842.00	49325.23
843.00	49706.74
844.00	49877.60
845.00	50010.23
846.00	49952.49
847.00	49893.98
848.00	50054.70
849.00	50246.62
850.00	50283.29
851.00	50201.37
852.00	50215.41
853.00	50395.63
854.00	50478.33
855.00	50551.67
856.00	50606.28
857.00	50706.93
858.00	50810.69
859.00	50812.25
860.00	50839.56
861.00	50813.03
862.00	51137.58
863.00	51115.74
864.00	51093.89
865.00	50951.12
866.00	51048.64
867.00	51306.88
868.00	51433.27
869.00	51677.47
870.00	51693.85
871.00	51722.72
872.00	51651.72
873.00	51801.52
874.00	51945.07
875.00	52086.28
876.00	52212.67
877.00	52311.75
878.00	52385.09
879.00	52393.67
880.00	52540.35
881.00	52654.25
882.00	52623.82
883.00	52518.50
884.00	52488.07
885.00	52398.35
886.00	52525.52
887.00	52618.36
888.00	52857.10
889.00	52909.37
890.00	52881.28
891.00	52931.22
892.00	53047.46
893.00	52993.63
894.00	52943.70
895.00	53032.64
896.00	53099.73
897.00	53151.23
898.00	53109.88
899.00	53198.82
900.00	53407.12
901.00	53400.10
902.00	53662.24
903.00	53744.16
904.00	54021.12
905.00	54172.48
906.00	54156.10
907.00	54110.06
908.00	53939.99
909.00	54092.12
910.00	54126.45
911.00	54158.44
912.00	54014.88
913.00	54021.12
914.00	54062.47
915.00	54254.40
916.00	54156.10
917.00	54134.25
918.00	54060.91
919.00	54034.39
920.00	54128.79
921.00	54173.26
922.00	54426.04
923.00	54464.27
924.00	54610.16
925.00	54607.82
926.00	54816.13
927.00	54919.89
928.00	54972.94
929.00	55064.22
930.00	55090.75
931.00	55147.70
932.00	55114.15
933.00	54979.18
934.00	55005.71
935.00	55046.28
936.00	55191.39
937.00	55338.85
938.00	55238.20
939.00	55301.40
940.00	55229.62
941.00	55299.84
942.00	55393.46
943.00	55519.07
944.00	55691.49
945.00	55737.52
946.00	55825.68
947.00	55771.85
948.00	55760.14
949.00	55806.17
950.00	55979.37
951.00	56016.04
952.00	55919.30
953.00	55874.83
954.00	56016.04
955.00	56167.40
956.00	56159.59
957.00	56057.39
958.00	56137.75
959.00	56244.63
960.00	56369.46
961.00	56219.67
962.00	56269.60
963.00	56383.51
964.00	56566.07
965.00	56626.92
966.00	56673.73
967.00	56869.56
968.00	56980.34
969.00	56946.79
970.00	56924.95
971.00	57024.81
972.00	57172.27
973.00	57141.06
974.00	57088.01
975.00	57162.90
976.00	57183.19
977.00	57130.92
978.00	57014.67
979.00	57103.61
980.00	57149.64
981.00	57368.09
982.00	57452.35
983.00	57516.32
984.00	57478.10
985.00	57402.42
986.00	57398.52
987.00	57235.46
988.00	57261.21
989.00	57322.06
990.00	57587.32
991.00	57604.48
992.00	57659.88
993.00	57616.19
994.00	57855.70
995.00	58025.00
996.00	58174.02
997.00	58252.81
998.00	58383.88
999.00	58539.14
1000.00	58529.78
1001.00	58454.10
1002.00	58261.40
1003.00	58182.60
1004.00	58172.45
1005.00	58258.27
1006.00	58270.76
1007.00	58340.19
1008.00	58360.48
1009.00	58372.96
1010.00	58321.47
1011.00	58372.96
1012.00	58529.00
1013.00	58593.75
1014.00	58633.54
1015.00	58631.20
1016.00	58687.37
1017.00	58754.47
1018.00	58820.78
1019.00	58968.24
1020.00	58954.19
1021.00	59101.65
1022.00	59047.04
1023.00	59052.50
1024.00	58870.71
1025.00	58940.15
1026.00	59082.92
1027.00	59192.93
1028.00	59217.11
1029.00	59129.73
1030.00	59175.76
1031.00	59315.42
1032.00	59348.96
1033.00	59455.07
1034.00	59408.26
1035.00	59526.06
1036.00	59497.98
1037.00	59482.37
1038.00	59452.73
1039.00	59430.88
1040.00	59490.18
1041.00	59594.72
1042.00	59616.57
1043.00	59689.90
1044.00	59761.68
1045.00	60051.12
1046.00	60122.12
1047.00	60078.43
1048.00	59966.87
1049.00	59967.65
1050.00	60072.97
1051.00	60090.91
1052.00	60064.39
1053.00	60079.21
1054.00	60091.69
1055.00	60067.51
1056.00	60052.69
1057.00	60102.62
1058.00	60256.31
1059.00	60304.68
1060.00	60425.61
1061.00	60424.05
1062.00	60495.83
1063.00	60438.09
1064.00	60450.58
1065.00	60404.55
1066.00	60420.93
1067.00	60478.66
1068.00	60489.59
1069.00	60458.38
1070.00	60399.08
1071.00	60488.80
1072.00	60624.56
1073.00	60768.11
1074.00	60787.61
1075.00	60789.95
1076.00	60815.70
1077.00	60917.12
1078.00	61020.89
1079.00	61038.05
1080.00	61052.87
1081.00	61045.85
1082.00	61053.65
1083.00	61045.07
1084.00	60945.99
1085.00	60983.44
1086.00	60952.23
1087.00	61008.40
1088.00	60941.31
1089.00	61092.66
1090.00	61192.53
1091.00	61366.51
1092.00	61315.01
1093.00	61258.84
1094.00	61206.57
1095.00	61222.95
1096.00	61312.67
1097.00	61381.33
1098.00	61425.02
1099.00	61345.44
1100.00	61267.42
1101.00	61285.37
1102.00	61350.12
1103.00	61374.31
1104.00	61389.91
1105.00	61560.77
1106.00	61667.65
1107.00	61752.69
1108.00	61734.75
1109.00	61758.16
1110.00	61770.64
1111.00	61693.40
1112.00	61743.33
1113.00	61687.94
1114.00	61698.08
1115.00	61618.50
1116.00	61617.72
1117.00	61709.78
1118.00	61648.15
1119.00	61548.29
1120.00	61503.82
1121.00	61627.09
1122.00	61856.46
1123.00	61864.26
1124.00	61851.78
1125.00	61710.56
1126.00	61732.41
1127.00	61772.20
1128.00	61873.62
1129.00	61888.45
1130.00	61975.83
1131.00	61971.14
1132.00	62001.57
1133.00	61858.02
1134.00	61810.43
1135.00	61793.26
1136.00	61886.10
1137.00	62048.38
1138.00	62075.69
1139.00	62117.82
1140.00	62046.04
1141.00	62142.78
1142.00	62237.97
1143.00	62284.00
1144.00	62188.03
1145.00	62149.02
1146.00	62182.57
1147.00	62280.10
1148.00	62284.00
1149.00	62260.59
1150.00	62207.54
1151.00	62163.07
1152.00	62131.86
1153.00	62069.45
1154.00	62017.17
1155.00	61977.39
1156.00	62021.86
1157.00	62071.79
1158.00	62093.63
1159.00	62198.18
1160.00	62227.82
1161.00	62346.41
1162.00	62273.85
1163.00	62276.97
1164.00	62197.40
1165.00	62323.78
1166.00	62376.06
1167.00	62462.66
1168.00	62495.42
1169.00	62563.30
1170.00	62604.65
1171.00	62520.39
1172.00	62374.50
1173.00	62345.63
1174.00	62346.41
1175.00	62442.37
1176.00	62441.59
1177.00	62455.64
1178.00	62352.65
1179.00	62314.42
1180.00	62332.37
1181.00	62330.03
1182.00	62327.69
1183.00	62259.03
1184.00	62283.22
1185.00	62284.78
1186.00	62440.03
1187.00	62527.41
1188.00	62653.80
1189.00	62599.19
1190.00	62567.20
1191.00	62515.71
1192.00	62421.31
1193.00	62411.95
1194.00	62301.16
1195.00	62344.85
1196.00	62359.67
1197.00	62411.16
1198.00	62444.71
1199.00	62454.86
1200.00	62514.93
1201.00	62535.21
1202.00	62577.34
1203.00	62656.14
1204.00	62622.59
1205.00	62583.58
1206.00	62486.06
1207.00	62542.23
1208.00	62623.37
1209.00	62678.77
1210.00	62745.86
1211.00	62744.30
1212.00	62824.66
1213.00	62823.88
1214.00	62725.58
1215.00	62643.66
1216.00	62589.05
1217.00	62649.12
1218.00	62609.33
1219.00	62624.15
1220.00	62688.91
1221.00	62656.14
1222.00	62719.34
1223.00	62793.45
1224.00	62830.12
1225.00	62751.32
1226.00	62677.21
1227.00	62697.49
1228.00	62617.91
1229.00	62549.26
1230.00	62538.33
1231.00	62648.34
1232.00	62709.19
1233.00	62795.79
1234.00	62701.39
1235.00	62688.13
1236.00	62746.64
1237.00	62860.55
1238.00	62923.74
