SpectraSuite Data File
++++++++++++++++++++++++++++++++++++
Date: Thu Nov 16 14:03:48 EST 2017
User: cheriyan
Dark Spectrum Present: No
Reference Spectrum Present: No
Number of Sampled Component Spectra: 1
Spectrometers: USB2+H05261
Integration Time (usec): 100000 (USB2+H05261)
Spectra Averaged: 1 (USB2+H05261)
Boxcar Smoothing: 1 (USB2+H05261)
Correct for Electrical Dark: No (USB2+H05261)
Strobe/Lamp Enabled: No (USB2+H05261)
Correct for Detector Non-linearity: No (USB2+H05261)
Correct for Stray Light: No (USB2+H05261)
Number of Pixels in Processed Spectrum: 2048
>>>>>Begin Processed Spectral Data<<<<<
0.00	266.82
1.00	266.82
2.00	268.38
3.00	273.06
4.00	268.38
5.00	241.86
6.00	220.01
7.00	212.99
8.00	247.32
9.00	241.08
10.00	237.17
11.00	230.93
12.00	252.78
13.00	244.98
14.00	228.59
15.00	258.24
16.00	275.40
17.00	282.42
18.00	245.76
19.00	279.30
20.00	300.37
21.00	305.05
22.00	315.19
23.00	357.32
24.00	512.58
25.00	672.51
26.00	802.02
27.00	845.71
28.00	822.31
29.00	822.31
30.00	850.39
31.00	869.12
32.00	886.28
33.00	874.58
34.00	897.21
35.00	927.63
36.00	937.77
37.00	941.68
38.00	939.34
39.00	913.59
40.00	903.45
41.00	916.71
42.00	951.82
43.00	978.34
44.00	976.00
45.00	951.04
46.00	936.99
47.00	916.71
48.00	960.40
49.00	996.29
50.00	1004.09
51.00	1023.59
52.00	1032.18
53.00	1047.00
54.00	1052.46
55.00	1032.18
56.00	1030.62
57.00	1006.43
58.00	994.73
59.00	1007.21
60.00	993.17
61.00	1029.06
62.00	1019.69
63.00	1035.30
64.00	1020.47
65.00	1024.37
66.00	1031.40
67.00	1029.84
68.00	1054.80
69.00	1043.10
70.00	1056.36
71.00	1061.04
72.00	1088.35
73.00	1110.97
74.00	1117.22
75.00	1114.88
76.00	1103.17
77.00	1078.21
78.00	1090.69
79.00	1110.97
80.00	1155.44
81.00	1143.74
82.00	1143.74
83.00	1132.04
84.00	1171.05
85.00	1174.17
86.00	1202.26
87.00	1220.20
88.00	1242.82
89.00	1213.18
90.00	1184.31
91.00	1183.53
92.00	1214.74
93.00	1209.28
94.00	1217.86
95.00	1222.54
96.00	1258.43
97.00	1237.36
98.00	1242.04
99.00	1253.75
100.00	1280.27
101.00	1305.24
102.00	1308.36
103.00	1312.26
104.00	1289.64
105.00	1263.11
106.00	1271.69
107.00	1275.59
108.00	1323.96
109.00	1323.96
110.00	1348.93
111.00	1329.42
112.00	1343.47
113.00	1321.62
114.00	1347.37
115.00	1344.25
116.00	1366.09
117.00	1359.07
118.00	1351.27
119.00	1367.65
120.00	1387.94
121.00	1406.66
122.00	1414.46
123.00	1396.52
124.00	1443.33
125.00	1476.10
126.00	1505.74
127.00	1488.58
128.00	1470.64
129.00	1499.50
130.00	1528.37
131.00	1554.12
132.00	1520.57
133.00	1504.18
134.00	1483.12
135.00	1509.65
136.00	1532.27
137.00	1536.95
138.00	1556.46
139.00	1558.80
140.00	1572.84
141.00	1570.50
142.00	1601.71
143.00	1642.28
144.00	1688.31
145.00	1671.14
146.00	1656.32
147.00	1647.74
148.00	1627.45
149.00	1646.96
150.00	1666.46
151.00	1687.53
152.00	1695.33
153.00	1681.28
154.00	1739.02
155.00	1766.32
156.00	1784.27
157.00	1742.92
158.00	1733.56
159.00	1735.12
160.00	1764.76
161.00	1769.44
162.00	1810.79
163.00	1820.16
164.00	1845.90
165.00	1831.08
166.00	1848.24
167.00	1865.41
168.00	1881.79
169.00	1888.03
170.00	1892.71
171.00	1898.17
172.00	1909.88
173.00	1894.27
174.00	1931.72
175.00	1937.18
176.00	1989.46
177.00	1948.11
178.00	1973.07
179.00	1976.97
180.00	1993.36
181.00	2020.66
182.00	2016.76
183.00	2016.76
184.00	2010.52
185.00	2014.42
186.00	2025.34
187.00	2032.37
188.00	2040.95
189.00	2099.46
190.00	2118.96
191.00	2153.29
192.00	2157.97
193.00	2204.78
194.00	2200.88
195.00	2176.70
196.00	2182.94
197.00	2182.94
198.00	2223.51
199.00	2222.73
200.00	2252.38
201.00	2291.38
202.00	2307.77
203.00	2342.88
204.00	2357.70
205.00	2351.46
206.00	2322.59
207.00	2309.33
208.00	2303.09
209.00	2392.81
210.00	2428.70
211.00	2456.00
212.00	2442.74
213.00	2442.74
214.00	2457.56
215.00	2484.09
216.00	2462.24
217.00	2494.23
218.00	2482.53
219.00	2510.61
220.00	2551.18
221.00	2591.75
222.00	2629.98
223.00	2600.34
224.00	2568.35
225.00	2547.28
226.00	2576.15
227.00	2616.72
228.00	2663.53
229.00	2654.17
230.00	2657.29
231.00	2672.89
232.00	2688.50
233.00	2732.97
234.00	2743.11
235.00	2776.66
236.00	2768.85
237.00	2768.85
238.00	2786.80
239.00	2784.46
240.00	2859.35
241.00	2900.70
242.00	2956.10
243.00	2927.23
244.00	2966.24
245.00	2978.72
246.00	3021.63
247.00	3000.57
248.00	3016.17
249.00	3035.67
250.00	3050.50
251.00	3095.75
252.00	3072.34
253.00	3144.12
254.00	3187.81
255.00	3293.91
256.00	3272.07
257.00	3229.94
258.00	3223.70
259.00	3204.97
260.00	3245.54
261.00	3194.83
262.00	3262.71
263.00	3279.87
264.00	3352.43
265.00	3333.70
266.00	3366.47
267.00	3389.88
268.00	3421.08
269.00	3418.74
270.00	3409.38
271.00	3463.99
272.00	3542.01
273.00	3618.47
274.00	3672.30
275.00	3669.96
276.00	3638.75
277.00	3586.48
278.00	3600.52
279.00	3629.39
280.00	3669.18
281.00	3699.61
282.00	3769.04
283.00	3830.68
284.00	3831.46
285.00	3855.64
286.00	3866.56
287.00	3847.06
288.00	3836.92
289.00	3840.82
290.00	3847.06
291.00	3815.85
292.00	3847.84
293.00	3944.58
294.00	4017.92
295.00	4015.58
296.00	3985.15
297.00	3954.73
298.00	4004.66
299.00	4028.84
300.00	4024.16
301.00	3976.57
302.00	3970.33
303.00	4061.61
304.00	4134.95
305.00	4191.12
306.00	4119.34
307.00	4054.59
308.00	4038.20
309.00	4087.36
310.00	4170.83
311.00	4219.21
312.00	4239.49
313.00	4257.43
314.00	4230.13
315.00	4263.68
316.00	4265.24
317.00	4259.78
318.00	4296.44
319.00	4248.07
320.00	4327.65
321.00	4228.57
322.00	4288.64
323.00	4263.68
324.00	4351.06
325.00	4390.84
326.00	4487.59
327.00	4567.95
328.00	4610.08
329.00	4588.23
330.00	4596.03
331.00	4544.54
332.00	4550.78
333.00	4496.95
334.00	4564.04
335.00	4609.29
336.00	4702.14
337.00	4744.27
338.00	4734.12
339.00	4784.84
340.00	4819.16
341.00	4903.42
342.00	4890.16
343.00	4892.50
344.00	4868.31
345.00	4910.44
346.00	4912.00
347.00	4918.25
348.00	4943.99
349.00	4987.68
350.00	5052.44
351.00	5086.76
352.00	5093.79
353.00	5130.45
354.00	5097.69
355.00	5122.65
356.00	5105.49
357.00	5183.51
358.00	5213.93
359.00	5271.67
360.00	5266.99
361.00	5361.39
362.00	5334.86
363.00	5326.28
364.00	5302.87
365.00	5363.73
366.00	5387.91
367.00	5394.93
368.00	5384.79
369.00	5422.24
370.00	5416.00
371.00	5529.91
372.00	5522.10
373.00	5523.66
374.00	5525.22
375.00	5586.86
376.00	5664.10
377.00	5618.07
378.00	5675.02
379.00	5747.58
380.00	5855.24
381.00	5901.27
382.00	5905.95
383.00	5919.21
384.00	5940.28
385.00	6004.25
386.00	5996.45
387.00	6074.47
388.00	6123.62
389.00	6239.87
390.00	6201.64
391.00	6206.32
392.00	6195.40
393.00	6298.38
394.00	6360.02
395.00	6424.77
396.00	6461.44
397.00	6555.84
398.00	6648.68
399.00	6753.23
400.00	6715.78
401.00	6685.35
402.00	6708.76
403.00	6828.12
404.00	6915.50
405.00	6917.84
406.00	6957.63
407.00	6981.04
408.00	6873.37
409.00	6777.41
410.00	6729.04
411.00	6900.68
412.00	6911.60
413.00	6944.37
414.00	6904.58
415.00	6923.30
416.00	6925.65
417.00	6906.92
418.00	6987.28
419.00	7068.42
420.00	7157.36
421.00	7181.54
422.00	7190.91
423.00	7172.18
424.00	7151.12
425.00	7126.15
426.00	7222.89
427.00	7229.13
428.00	7310.27
429.00	7241.62
430.00	7306.37
431.00	7310.27
432.00	7322.76
433.00	7312.61
434.00	7407.02
435.00	7495.96
436.00	7506.88
437.00	7370.35
438.00	7389.07
439.00	7495.96
440.00	7624.69
441.00	7645.75
442.00	7633.27
443.00	7648.09
444.00	7679.30
445.00	7655.89
446.00	7695.68
447.00	7708.94
448.00	7832.99
449.00	7829.87
450.00	7946.12
451.00	7943.78
452.00	7981.23
453.00	7911.01
454.00	7949.24
455.00	8050.66
456.00	8175.49
457.00	8160.67
458.00	8124.78
459.00	8116.20
460.00	8189.53
461.00	8266.77
462.00	8336.99
463.00	8377.56
464.00	8368.98
465.00	8370.54
466.00	8456.36
467.00	8535.93
468.00	8503.95
469.00	8517.21
470.00	8612.39
471.00	8791.05
472.00	8796.51
473.00	8759.84
474.00	8795.73
475.00	8883.89
476.00	8966.59
477.00	9000.14
478.00	9036.03
479.00	9068.02
480.00	9025.89
481.00	9042.27
482.00	9099.22
483.00	9098.44
484.00	9202.21
485.00	9243.56
486.00	9306.75
487.00	9254.48
488.00	9210.79
489.00	9316.11
490.00	9307.53
491.00	9324.69
492.00	9339.52
493.00	9491.65
494.00	9611.02
495.00	9663.29
496.00	9603.22
497.00	9661.73
498.00	9691.38
499.00	9808.40
500.00	9752.23
501.00	9820.89
502.00	9906.71
503.00	10006.57
504.00	9995.65
505.00	9942.60
506.00	10083.81
507.00	10248.43
508.00	10326.44
509.00	10290.56
510.00	10275.73
511.00	10320.98
512.00	10389.64
513.00	10455.17
514.00	10518.37
515.00	10569.86
516.00	10490.28
517.00	10498.08
518.00	10456.73
519.00	10480.14
520.00	10585.46
521.00	10611.21
522.00	10666.60
523.00	10646.32
524.00	10761.78
525.00	10863.21
526.00	10880.37
527.00	10890.51
528.00	10960.73
529.00	10959.95
530.00	10993.50
531.00	10878.03
532.00	10839.02
533.00	10828.10
534.00	10906.12
535.00	11130.03
536.00	11108.18
537.00	11165.14
538.00	11048.11
539.00	11206.48
540.00	11254.08
541.00	11420.25
542.00	11339.12
543.00	11367.20
544.00	11411.67
545.00	11574.73
546.00	11610.62
547.00	11619.98
548.00	11674.59
549.00	11891.48
550.00	12006.95
551.00	12036.60
552.00	12011.63
553.00	11994.47
554.00	11946.87
555.00	11914.89
556.00	11942.97
557.00	12154.40
558.00	12300.30
559.00	12486.76
560.00	12492.22
561.00	12539.81
562.00	12514.84
563.00	12590.52
564.00	12633.43
565.00	12720.81
566.00	12879.97
567.00	12953.30
568.00	12976.71
569.00	12855.00
570.00	12930.68
571.00	13076.57
572.00	13307.51
573.00	13302.82
574.00	13303.60
575.00	13319.21
576.00	13529.08
577.00	13742.85
578.00	13922.29
579.00	13959.74
580.00	13938.67
581.00	14027.61
582.00	14225.78
583.00	14337.34
584.00	14480.89
585.00	14533.17
586.00	14767.22
587.00	14611.18
588.00	14630.69
589.00	14589.34
590.00	14826.51
591.00	15038.72
592.00	15259.51
593.00	15499.03
594.00	15598.11
595.00	15670.67
596.00	15701.87
597.00	15815.78
598.00	15966.35
599.00	16109.91
600.00	16269.84
601.00	16297.93
602.00	16333.82
603.00	16389.21
604.00	16632.63
605.00	16915.05
606.00	17073.43
607.00	17300.46
608.00	17341.03
609.00	17501.75
610.00	17494.72
611.00	17628.91
612.00	17716.30
613.00	17848.93
614.00	17920.70
615.00	18063.47
616.00	18226.53
617.00	18347.46
618.00	18582.29
619.00	18706.34
620.00	19023.09
621.00	19072.25
622.00	19196.29
623.00	19374.95
624.00	19540.35
625.00	19734.62
626.00	19672.98
627.00	19761.92
628.00	19815.76
629.00	20154.35
630.00	20475.79
631.00	20666.15
632.00	20643.52
633.00	20849.49
634.00	21110.85
635.00	21463.49
636.00	21523.57
637.00	21765.42
638.00	21954.23
639.00	22026.78
640.00	21963.59
641.00	21985.43
642.00	22224.17
643.00	22657.95
644.00	23004.35
645.00	23140.10
646.00	22990.30
647.00	22924.77
648.00	23123.71
649.00	23473.23
650.00	23705.73
651.00	23878.15
652.00	23882.83
653.00	24160.57
654.00	24299.44
655.00	24581.87
656.00	24636.48
657.00	24959.47
658.00	25136.57
659.00	25402.61
660.00	25535.24
661.00	25768.52
662.00	25816.11
663.00	25872.28
664.00	25958.88
665.00	26068.89
666.00	26264.71
667.00	26394.22
668.00	26623.59
669.00	26796.01
670.00	27016.80
671.00	27300.79
672.00	27361.64
673.00	27522.36
674.00	27526.26
675.00	27671.37
676.00	27630.80
677.00	27772.02
678.00	28092.67
679.00	28406.30
680.00	28711.35
681.00	28781.57
682.00	29205.98
683.00	29415.07
684.00	29646.79
685.00	29675.65
686.00	29836.37
687.00	30044.68
688.00	30207.73
689.00	30321.64
690.00	30434.77
691.00	30481.58
692.00	30642.29
693.00	30827.98
694.00	31074.51
695.00	31318.71
696.00	31506.73
697.00	31660.43
698.00	31775.11
699.00	31816.46
700.00	32070.80
701.00	32345.42
702.00	32542.81
703.00	32769.84
704.00	32951.62
705.00	33309.72
706.00	33466.54
707.00	33597.61
708.00	33717.76
709.00	33970.54
710.00	34134.37
711.00	34272.46
712.00	34256.86
713.00	34350.48
714.00	34363.75
715.00	34420.70
716.00	34603.26
717.00	35008.95
718.00	35145.48
719.00	35266.41
720.00	35385.78
721.00	35548.06
722.00	35633.88
723.00	35530.11
724.00	35668.20
725.00	35819.56
726.00	36027.87
727.00	36400.01
728.00	36297.03
729.00	36332.92
730.00	36231.49
731.00	36474.13
732.00	36601.30
733.00	36652.79
734.00	36740.17
735.00	36789.32
736.00	36776.84
737.00	37139.62
738.00	37372.11
739.00	37725.53
740.00	37668.58
741.00	37912.00
742.00	38006.40
743.00	37986.11
744.00	37978.31
745.00	38157.75
746.00	38486.99
747.00	38845.09
748.00	39039.36
749.00	39200.07
750.00	39285.89
751.00	39356.11
752.00	39549.59
753.00	39627.61
754.00	39821.09
755.00	39789.89
756.00	40099.62
757.00	40121.46
758.00	40271.26
759.00	40109.76
760.00	40311.05
761.00	40530.28
762.00	40807.24
763.00	40909.44
764.00	40916.47
765.00	40907.88
766.00	41036.61
767.00	41340.10
768.00	41558.55
769.00	41721.61
770.00	42004.03
771.00	42096.88
772.00	42334.05
773.00	42190.50
774.00	42421.43
775.00	42414.41
776.00	42654.70
777.00	42827.12
778.00	42947.27
779.00	43095.50
780.00	43079.12
781.00	43345.16
782.00	43434.88
783.00	43601.84
784.00	43646.31
785.00	43623.68
786.00	43678.30
787.00	43746.17
788.00	44179.17
789.00	44431.95
790.00	44559.90
791.00	44570.82
792.00	44766.65
793.00	44974.17
794.00	45016.30
795.00	44900.06
796.00	45108.36
797.00	45375.97
798.00	45471.93
799.00	45410.29
800.00	45485.19
801.00	45742.65
802.00	46059.40
803.00	46167.85
804.00	46408.14
805.00	46578.22
806.00	46711.63
807.00	46651.56
808.00	46586.80
809.00	46731.92
810.00	46969.09
811.00	47136.05
812.00	47116.54
813.00	47196.12
814.00	47492.59
815.00	47636.14
816.00	47659.55
817.00	47413.01
818.00	47423.15
819.00	47546.42
820.00	47668.91
821.00	47998.15
822.00	48062.90
823.00	48176.81
824.00	48142.48
825.00	48215.04
826.00	48531.01
827.00	48758.82
828.00	49013.16
829.00	48935.14
830.00	48989.75
831.00	49126.28
832.00	49370.48
833.00	49344.73
834.00	49363.46
835.00	49359.56
836.00	49500.77
837.00	49704.40
838.00	49813.62
839.00	49909.58
840.00	49908.80
841.00	50163.92
842.00	50486.14
843.00	50733.45
844.00	50791.19
845.00	50888.71
846.00	50855.16
847.00	50859.84
848.00	50809.91
849.00	51024.46
850.00	51050.20
851.00	51084.53
852.00	51125.10
853.00	51337.31
854.00	51510.51
855.00	51544.84
856.00	51695.41
857.00	51841.31
858.00	51913.08
859.00	51870.17
860.00	51909.96
861.00	51970.82
862.00	52046.49
863.00	51973.94
864.00	51966.13
865.00	51909.18
866.00	52067.56
867.00	52183.80
868.00	52370.27
869.00	52390.55
870.00	52572.33
871.00	52727.59
872.00	52790.78
873.00	52740.07
874.00	52814.19
875.00	52946.82
876.00	53092.71
877.00	53276.83
878.00	53350.95
879.00	53405.56
880.00	53341.59
881.00	53475.00
882.00	53443.01
883.00	53446.13
884.00	53276.05
885.00	53270.59
886.00	53328.33
887.00	53494.50
888.00	53652.10
889.00	53641.18
890.00	53656.00
891.00	53794.87
892.00	53893.96
893.00	53863.53
894.00	53829.98
895.00	53883.03
896.00	54034.39
897.00	54032.05
898.00	54016.44
899.00	54102.26
900.00	54301.99
901.00	54479.87
902.00	54575.83
903.00	54575.05
904.00	54674.91
905.00	54791.94
906.00	54942.52
907.00	54824.71
908.00	54742.79
909.00	54825.49
910.00	54901.95
911.00	54845.77
912.00	54699.10
913.00	54844.99
914.00	54873.86
915.00	54913.65
916.00	54758.39
917.00	54761.51
918.00	54805.20
919.00	54800.52
920.00	54853.58
921.00	54876.98
922.00	55128.98
923.00	55293.60
924.00	55445.73
925.00	55419.20
926.00	55671.20
927.00	55694.61
928.00	55760.92
929.00	55706.31
930.00	55719.57
931.00	55721.13
932.00	55753.90
933.00	55859.23
934.00	55938.02
935.00	55917.74
936.00	55924.76
937.00	55972.35
938.00	55938.80
939.00	55966.11
940.00	55954.41
941.00	56057.39
942.00	56137.75
943.00	56307.05
944.00	56399.11
945.00	56531.74
946.00	56523.94
947.00	56461.52
948.00	56484.15
949.00	56555.14
950.00	56747.07
951.00	56790.76
952.00	56807.92
953.00	56764.23
954.00	56679.97
955.00	56658.13
956.00	56704.94
957.00	56787.64
958.00	56962.40
959.00	57101.27
960.00	57137.94
961.00	57166.80
962.00	57153.54
963.00	57216.74
964.00	57286.95
965.00	57368.87
966.00	57568.60
967.00	57709.03
968.00	57762.86
969.00	57670.80
970.00	57645.83
971.00	57785.49
972.00	57897.83
973.00	57922.02
974.00	57912.66
975.00	57964.93
976.00	57908.75
977.00	57780.02
978.00	57702.01
979.00	57751.16
980.00	57847.12
981.00	58051.53
982.00	58099.90
983.00	58134.23
984.00	58120.18
985.00	58174.80
986.00	58204.44
987.00	58052.31
988.00	58129.55
989.00	58123.30
990.00	58347.21
991.00	58282.46
992.00	58375.30
993.00	58445.52
994.00	58659.29
995.00	58845.75
996.00	58834.83
997.00	58936.25
998.00	59011.93
999.00	59189.81
1000.00	59207.75
1001.00	59163.28
1002.00	59005.69
1003.00	58853.55
1004.00	58851.21
1005.00	58814.54
1006.00	58918.31
1007.00	58940.93
1008.00	59043.13
1009.00	59015.05
1010.00	59057.18
1011.00	59011.15
1012.00	59114.13
1013.00	59113.35
1014.00	59265.49
1015.00	59336.48
1016.00	59426.98
1017.00	59501.10
1018.00	59522.94
1019.00	59554.93
1020.00	59598.62
1021.00	59716.43
1022.00	59833.45
1023.00	59788.20
1024.00	59710.97
1025.00	59684.44
1026.00	59856.08
1027.00	59975.45
1028.00	60026.16
1029.00	59917.71
1030.00	59883.39
1031.00	59968.43
1032.00	60104.18
1033.00	60193.90
1034.00	60141.63
1035.00	60126.80
1036.00	60157.23
1037.00	60178.29
1038.00	60222.76
1039.00	60173.61
1040.00	60252.41
1041.00	60259.43
1042.00	60236.81
1043.00	60346.81
1044.00	60472.42
1045.00	60699.45
1046.00	60647.96
1047.00	60594.91
1048.00	60549.66
1049.00	60582.43
1050.00	60704.13
1051.00	60740.02
1052.00	60839.11
1053.00	60895.28
1054.00	60903.86
1055.00	60783.71
1056.00	60656.54
1057.00	60721.30
1058.00	60917.90
1059.00	61085.64
1060.00	61163.66
1061.00	61118.41
1062.00	61148.84
1063.00	61088.76
1064.00	61081.74
1065.00	61024.79
1066.00	61078.62
1067.00	61176.14
1068.00	61155.08
1069.00	61147.28
1070.00	61086.42
1071.00	61229.97
1072.00	61343.10
1073.00	61445.30
1074.00	61474.17
1075.00	61512.40
1076.00	61517.86
1077.00	61520.98
1078.00	61574.81
1079.00	61639.57
1080.00	61666.09
1081.00	61704.32
1082.00	61754.25
1083.00	61846.32
1084.00	61843.98
1085.00	61861.14
1086.00	61794.04
1087.00	61734.75
1088.00	61693.40
1089.00	61722.27
1090.00	61776.10
1091.00	61792.48
1092.00	61874.40
1093.00	61881.42
1094.00	61936.04
1095.00	61899.37
1096.00	61957.10
1097.00	62015.61
1098.00	62113.14
1099.00	62055.40
1100.00	62082.71
1101.00	62052.28
1102.00	62109.24
1103.00	62063.99
1104.00	62117.04
1105.00	62205.20
1106.00	62224.70
1107.00	62227.82
1108.00	62242.65
1109.00	62414.29
1110.00	62462.66
1111.00	62429.11
1112.00	62297.26
1113.00	62244.21
1114.00	62230.16
1115.00	62228.60
1116.00	62230.16
1117.00	62305.06
1118.00	62389.32
1119.00	62366.69
1120.00	62368.26
1121.00	62313.64
1122.00	62443.93
1123.00	62425.21
1124.00	62511.03
1125.00	62468.90
1126.00	62557.84
1127.00	62604.65
1128.00	62617.13
1129.00	62528.19
1130.00	62474.36
1131.00	62486.84
1132.00	62568.76
1133.00	62550.82
1134.00	62525.85
1135.00	62503.23
1136.00	62518.05
1137.00	62560.18
1138.00	62609.33
1139.00	62692.81
1140.00	62740.40
1141.00	62841.04
1142.00	62954.95
1143.00	62941.69
1144.00	62849.63
1145.00	62738.06
1146.00	62783.31
1147.00	62796.57
1148.00	62783.31
1149.00	62758.34
1150.00	62772.39
1151.00	62838.70
1152.00	62830.12
1153.00	62805.94
1154.00	62654.58
1155.00	62602.31
1156.00	62533.65
1157.00	62615.57
1158.00	62578.12
1159.00	62647.56
1160.00	62733.38
1161.00	62884.73
1162.00	62985.38
1163.00	62909.70
1164.00	62883.17
1165.00	62849.63
1166.00	62862.89
1167.00	62962.75
1168.00	63053.25
1169.00	63164.04
1170.00	63110.20
1171.00	63062.61
1172.00	63053.25
1173.00	63052.47
1174.00	63011.12
1175.00	62983.82
1176.00	63014.24
1177.00	63049.35
1178.00	63028.29
1179.00	63017.36
1180.00	63036.09
1181.00	62993.96
1182.00	63047.79
1183.00	63040.77
1184.00	63086.80
1185.00	63011.12
1186.00	63027.51
1187.00	63091.48
1188.00	63153.90
1189.00	63138.29
1190.00	63095.38
1191.00	63045.45
1192.00	62975.23
1193.00	62922.18
1194.00	62919.06
1195.00	62993.18
1196.00	63029.07
1197.00	63015.80
1198.00	63086.02
1199.00	63178.08
1200.00	63193.68
1201.00	63212.41
1202.00	63094.60
1203.00	63121.91
1204.00	63052.47
1205.00	63121.13
1206.00	63098.50
1207.00	63103.18
1208.00	63079.00
1209.00	63190.56
1210.00	63287.31
1211.00	63376.25
1212.00	63464.41
1213.00	63439.44
1214.00	63368.44
1215.00	63233.47
1216.00	63086.80
1217.00	63124.25
1218.00	63153.11
1219.00	63317.73
1220.00	63366.10
1221.00	63368.44
1222.00	63342.70
1223.00	63363.76
1224.00	63321.63
1225.00	63274.82
1226.00	63236.59
1227.00	63206.17
1228.00	63113.33
1229.00	62989.28
1230.00	63015.80
1231.00	63160.14
1232.00	63281.84
1233.00	63318.51
1234.00	63309.93
1235.00	63316.17
1236.00	63419.16
1237.00	63444.12
