SpectraSuite Data File
++++++++++++++++++++++++++++++++++++
Date: Thu Nov 16 14:04:29 EST 2017
User: cheriyan
Dark Spectrum Present: No
Reference Spectrum Present: No
Number of Sampled Component Spectra: 1
Spectrometers: USB2+H05261
Integration Time (usec): 100000 (USB2+H05261)
Spectra Averaged: 1 (USB2+H05261)
Boxcar Smoothing: 1 (USB2+H05261)
Correct for Electrical Dark: No (USB2+H05261)
Strobe/Lamp Enabled: No (USB2+H05261)
Correct for Detector Non-linearity: No (USB2+H05261)
Correct for Stray Light: No (USB2+H05261)
Number of Pixels in Processed Spectrum: 2048
>>>>>Begin Processed Spectral Data<<<<<
0.00	428.32
1.00	428.32
2.00	369.80
3.00	305.05
4.00	244.98
5.00	252.00
6.00	268.38
7.00	273.06
8.00	273.84
9.00	258.24
10.00	241.08
11.00	247.32
12.00	242.64
13.00	239.51
14.00	224.69
15.00	236.39
16.00	244.98
17.00	251.22
18.00	248.88
19.00	253.56
20.00	256.68
21.00	279.30
22.00	311.29
23.00	361.22
24.00	513.36
25.00	647.55
26.00	761.45
27.00	779.40
28.00	825.43
29.00	851.17
30.00	874.58
31.00	869.12
32.00	881.60
33.00	871.46
34.00	871.46
35.00	872.24
36.00	909.69
37.00	960.40
38.00	979.12
39.00	966.64
40.00	927.63
41.00	930.75
42.00	931.53
43.00	942.46
44.00	926.85
45.00	930.75
46.00	952.60
47.00	981.46
48.00	1007.21
49.00	1003.31
50.00	989.27
51.00	991.61
52.00	1024.37
53.00	1018.91
54.00	1015.01
55.00	1000.19
56.00	1023.59
57.00	1044.66
58.00	1054.80
59.00	1068.06
60.00	1055.58
61.00	1011.11
62.00	1030.62
63.00	1047.00
64.00	1057.92
65.00	1054.02
66.00	1041.54
67.00	1057.14
68.00	1054.80
69.00	1064.94
70.00	1092.25
71.00	1090.69
72.00	1076.65
73.00	1071.97
74.00	1074.31
75.00	1093.81
76.00	1082.89
77.00	1099.27
78.00	1084.45
79.00	1114.10
80.00	1102.39
81.00	1108.63
82.00	1110.97
83.00	1115.66
84.00	1140.62
85.00	1138.28
86.00	1162.47
87.00	1162.47
88.00	1192.89
89.00	1185.09
90.00	1210.06
91.00	1206.94
92.00	1216.30
93.00	1200.69
94.00	1205.38
95.00	1220.98
96.00	1208.50
97.00	1190.55
98.00	1179.63
99.00	1200.69
100.00	1217.86
101.00	1220.20
102.00	1243.60
103.00	1288.86
104.00	1308.36
105.00	1294.32
106.00	1259.99
107.00	1259.99
108.00	1288.07
109.00	1339.57
110.00	1373.11
111.00	1369.99
112.00	1350.49
113.00	1316.16
114.00	1314.60
115.00	1296.66
116.00	1340.35
117.00	1356.73
118.00	1388.72
119.00	1360.63
120.00	1401.20
121.00	1377.80
122.00	1398.86
123.00	1393.40
124.00	1436.31
125.00	1471.42
126.00	1437.09
127.00	1433.19
128.00	1399.64
129.00	1440.99
130.00	1445.67
131.00	1477.66
132.00	1483.12
133.00	1495.60
134.00	1510.43
135.00	1511.99
136.00	1527.59
137.00	1565.82
138.00	1627.45
139.00	1653.20
140.00	1632.91
141.00	1616.53
142.00	1613.41
143.00	1604.83
144.00	1618.09
145.00	1621.99
146.00	1653.20
147.00	1626.67
148.00	1657.88
149.00	1650.86
150.00	1664.90
151.00	1642.28
152.00	1652.42
153.00	1648.52
154.00	1696.89
155.00	1727.32
156.00	1776.47
157.00	1746.04
158.00	1746.04
159.00	1739.80
160.00	1766.32
161.00	1766.32
162.00	1767.10
163.00	1763.98
164.00	1826.40
165.00	1852.92
166.00	1864.63
167.00	1833.42
168.00	1834.98
169.00	1854.48
170.00	1863.07
171.00	1896.61
172.00	1902.86
173.00	1918.46
174.00	1914.56
175.00	1940.30
176.00	1982.43
177.00	1986.33
178.00	2033.15
179.00	1997.26
180.00	2027.68
181.00	1978.53
182.00	1989.46
183.00	1988.68
184.00	2037.83
185.00	2061.23
186.00	2058.89
187.00	2050.31
188.00	2051.87
189.00	2035.49
190.00	2021.44
191.00	2029.24
192.00	2071.37
193.00	2106.48
194.00	2140.81
195.00	2164.22
196.00	2172.02
197.00	2186.84
198.00	2206.34
199.00	2245.35
200.00	2260.18
201.00	2254.72
202.00	2289.04
203.00	2280.46
204.00	2342.88
205.00	2322.59
206.00	2374.86
207.00	2377.98
208.00	2388.91
209.00	2385.01
210.00	2373.30
211.00	2390.47
212.00	2390.47
213.00	2424.01
214.00	2409.19
215.00	2403.73
216.00	2381.89
217.00	2392.81
218.00	2431.82
219.00	2479.41
220.00	2516.08
221.00	2526.22
222.00	2509.83
223.00	2519.20
224.00	2544.94
225.00	2552.74
226.00	2595.65
227.00	2637.00
228.00	2665.09
229.00	2670.55
230.00	2648.71
231.00	2632.32
232.00	2649.49
233.00	2654.17
234.00	2711.12
235.00	2723.60
236.00	2769.63
237.00	2778.22
238.00	2777.44
239.00	2793.82
240.00	2835.95
241.00	2874.96
242.00	2889.78
243.00	2876.52
244.00	2890.56
245.00	2897.58
246.00	2927.23
247.00	2959.22
248.00	3013.83
249.00	3058.30
250.00	3056.74
251.00	3062.20
252.00	3071.56
253.00	3092.63
254.00	3080.93
255.00	3066.88
256.00	3097.31
257.00	3116.03
258.00	3186.25
259.00	3176.89
260.00	3207.31
261.00	3194.83
262.00	3246.32
263.00	3314.98
264.00	3387.54
265.00	3396.90
266.00	3339.94
267.00	3318.88
268.00	3346.19
269.00	3432.01
270.00	3487.40
271.00	3496.76
272.00	3550.59
273.00	3542.79
274.00	3586.48
275.00	3576.34
276.00	3616.13
277.00	3620.03
278.00	3635.63
279.00	3664.50
280.00	3717.55
281.00	3746.42
282.00	3720.67
283.00	3716.77
284.00	3711.31
285.00	3738.62
286.00	3754.22
287.00	3754.22
288.00	3747.98
289.00	3786.21
290.00	3842.38
291.00	3859.54
292.00	3851.74
293.00	3866.56
294.00	3940.68
295.00	3941.46
296.00	3948.48
297.00	3939.12
298.00	3974.23
299.00	3975.79
300.00	3954.73
301.00	3909.47
302.00	3950.82
303.00	3997.63
304.00	4088.92
305.00	4117.78
306.00	4138.07
307.00	4092.04
308.00	4071.75
309.00	4092.04
310.00	4134.17
311.00	4126.36
312.00	4113.10
313.00	4145.87
314.00	4131.83
315.00	4144.31
316.00	4162.25
317.00	4236.37
318.00	4275.38
319.00	4259.78
320.00	4272.26
321.00	4227.01
322.00	4258.99
323.00	4269.92
324.00	4382.26
325.00	4489.93
326.00	4536.74
327.00	4533.62
328.00	4432.97
329.00	4496.17
330.00	4532.84
331.00	4611.64
332.00	4605.39
333.00	4617.10
334.00	4640.50
335.00	4624.90
336.00	4678.73
337.00	4706.04
338.00	4696.68
339.00	4664.69
340.00	4704.48
341.00	4790.30
342.00	4805.12
343.00	4834.77
344.00	4840.23
345.00	4868.31
346.00	4890.94
347.00	4887.82
348.00	4900.30
349.00	4927.61
350.00	4995.48
351.00	5080.52
352.00	5083.64
353.00	5125.77
354.00	5085.98
355.00	5075.06
356.00	4972.86
357.00	5043.85
358.00	5042.29
359.00	5135.92
360.00	5147.62
361.00	5249.04
362.00	5319.26
363.00	5340.32
364.00	5286.49
365.00	5269.33
366.00	5275.57
367.00	5352.81
368.00	5372.31
369.00	5390.25
370.00	5433.16
371.00	5423.80
372.00	5513.52
373.00	5501.04
374.00	5544.73
375.00	5529.91
376.00	5567.35
377.00	5630.55
378.00	5622.75
379.00	5665.66
380.00	5674.24
381.00	5742.89
382.00	5763.18
383.00	5881.77
384.00	5905.95
385.00	5985.53
386.00	5985.53
387.00	6047.16
388.00	6079.15
389.00	6109.58
390.00	6132.20
391.00	6144.69
392.00	6189.94
393.00	6262.49
394.00	6337.39
395.00	6374.06
396.00	6449.74
397.00	6552.72
398.00	6596.41
399.00	6645.56
400.00	6591.73
401.00	6637.76
402.00	6587.05
403.00	6683.01
404.00	6761.03
405.00	6921.74
406.00	6927.21
407.00	6863.23
408.00	6725.14
409.00	6683.01
410.00	6753.23
411.00	6835.14
412.00	6866.35
413.00	6867.91
414.00	6919.40
415.00	6966.99
416.00	6995.08
417.00	6963.09
418.00	7015.37
419.00	7016.15
420.00	7109.77
421.00	7080.12
422.00	7169.84
423.00	7107.43
424.00	7115.23
425.00	7052.81
426.00	7052.81
427.00	7082.46
428.00	7163.60
429.00	7223.67
430.00	7259.56
431.00	7197.93
432.00	7190.91
433.00	7211.19
434.00	7273.60
435.00	7311.83
436.00	7252.54
437.00	7261.90
438.00	7268.92
439.00	7353.96
440.00	7461.63
441.00	7543.55
442.00	7573.97
443.00	7583.34
444.00	7606.74
445.00	7657.45
446.00	7644.97
447.00	7652.77
448.00	7641.07
449.00	7631.71
450.00	7750.29
451.00	7835.33
452.00	7919.59
453.00	7899.31
454.00	7927.39
455.00	7921.93
456.00	7987.47
457.00	8095.13
458.00	8233.22
459.00	8152.09
460.00	8087.33
461.00	8062.37
462.00	8133.36
463.00	8145.06
464.00	8198.12
465.00	8320.60
466.00	8369.76
467.00	8405.64
468.00	8406.42
469.00	8443.09
470.00	8482.10
471.00	8487.56
472.00	8513.31
473.00	8532.81
474.00	8561.68
475.00	8684.95
476.00	8689.63
477.00	8830.84
478.00	8912.76
479.00	9014.18
480.00	9029.79
481.00	9021.98
482.00	9071.14
483.00	9039.93
484.00	9143.69
485.00	9104.68
486.00	9174.90
487.00	9107.80
488.00	9260.72
489.00	9223.27
490.00	9270.86
491.00	9197.53
492.00	9348.10
493.00	9331.72
494.00	9514.28
495.00	9514.28
496.00	9660.95
497.00	9600.88
498.00	9641.45
499.00	9636.77
500.00	9689.82
501.00	9674.99
502.00	9742.09
503.00	9793.58
504.00	9897.35
505.00	9956.64
506.00	9982.38
507.00	9969.12
508.00	10013.59
509.00	10061.18
510.00	10147.78
511.00	10136.08
512.00	10167.29
513.00	10197.71
514.00	10260.13
515.00	10257.79
516.00	10346.73
517.00	10351.41
518.00	10494.18
519.00	10456.73
520.00	10571.42
521.00	10530.85
522.00	10540.21
523.00	10527.73
524.00	10643.20
525.00	10806.25
526.00	10824.20
527.00	10807.81
528.00	10765.68
529.00	10782.07
530.00	10788.31
531.00	10875.69
532.00	10928.74
533.00	10903.78
534.00	10851.50
535.00	10948.25
536.00	11049.67
537.00	11032.51
538.00	11004.42
539.00	11061.37
540.00	11247.83
541.00	11225.99
542.00	11222.87
543.00	11263.44
544.00	11385.15
545.00	11461.60
546.00	11459.26
547.00	11545.86
548.00	11651.97
549.00	11804.10
550.00	11761.97
551.00	11765.09
552.00	11737.01
553.00	11825.95
554.00	11870.42
555.00	11889.92
556.00	11966.38
557.00	12062.34
558.00	12177.81
559.00	12265.19
560.00	12317.46
561.00	12414.20
562.00	12445.41
563.00	12489.10
564.00	12475.06
565.00	12655.28
566.00	12878.41
567.00	12862.02
568.00	12766.06
569.00	12574.92
570.00	12781.67
571.00	12939.26
572.00	13103.88
573.00	13069.55
574.00	13107.00
575.00	13249.77
576.00	13502.55
577.00	13654.69
578.00	13767.81
579.00	13819.30
580.00	13924.63
581.00	13885.62
582.00	13980.80
583.00	14046.34
584.00	14295.21
585.00	14377.91
586.00	14581.54
587.00	14469.97
588.00	14372.45
589.00	14312.38
590.00	14473.87
591.00	14653.31
592.00	14795.31
593.00	14995.03
594.00	15171.35
595.00	15289.16
596.00	15502.15
597.00	15680.03
598.00	15878.19
599.00	15956.21
600.00	16139.55
601.00	16100.55
602.00	16135.65
603.00	16223.81
604.00	16528.86
605.00	16849.52
606.00	16957.96
607.00	17010.23
608.00	16980.59
609.00	17086.69
610.00	17209.18
611.00	17292.66
612.00	17412.81
613.00	17594.59
614.00	17809.14
615.00	17916.80
616.00	17994.82
617.00	18129.01
618.00	18378.67
619.00	18539.38
620.00	18721.16
621.00	18862.38
622.00	19010.61
623.00	19355.45
624.00	19405.38
625.00	19576.24
626.00	19463.90
627.00	19687.03
628.00	19807.95
629.00	20017.04
630.00	20372.02
631.00	20500.75
632.00	20549.90
633.00	20610.76
634.00	21013.33
635.00	21206.81
636.00	21320.72
637.00	21347.25
638.00	21648.40
639.00	21756.84
640.00	21820.81
641.00	21829.40
642.00	22051.75
643.00	22327.93
644.00	22607.23
645.00	22721.14
646.00	22865.47
647.00	22807.74
648.00	22886.54
649.00	23096.41
650.00	23523.94
651.00	23915.59
652.00	24004.53
653.00	24230.79
654.00	24343.13
655.00	24636.48
656.00	24721.52
657.00	24964.15
658.00	25041.39
659.00	25209.13
660.00	25249.70
661.00	25371.41
662.00	25486.09
663.00	25672.56
664.00	25864.48
665.00	25966.68
666.00	26154.71
667.00	26351.31
668.00	26458.20
669.00	26600.19
670.00	26728.14
671.00	27101.06
672.00	27182.98
673.00	27144.75
674.00	27210.29
675.00	27440.44
676.00	27659.67
677.00	27742.37
678.00	27889.04
679.00	28286.93
680.00	28541.27
681.00	28667.66
682.00	28781.57
683.00	29020.30
684.00	29244.99
685.00	29376.84
686.00	29482.95
687.00	29701.40
688.00	29782.54
689.00	30007.23
690.00	30064.18
691.00	30405.90
692.00	30394.98
693.00	30543.99
694.00	30721.09
695.00	31108.84
696.00	31257.85
697.00	31457.58
698.00	31639.36
699.00	31797.74
700.00	31847.67
701.00	32001.36
702.00	32211.23
703.00	32373.51
704.00	32458.55
705.00	32767.50
706.00	33127.94
707.00	33375.26
708.00	33477.46
709.00	33688.89
710.00	33724.78
711.00	34014.23
712.00	33961.17
713.00	34263.88
714.00	34327.86
715.00	34407.44
716.00	34259.98
717.00	34492.47
718.00	34585.32
719.00	34796.74
720.00	34739.01
721.00	34873.20
722.00	34983.99
723.00	35127.54
724.00	35411.53
725.00	35648.70
726.00	35697.85
727.00	35810.20
728.00	35970.91
729.00	36233.83
730.00	36380.51
731.00	36371.14
732.00	36425.76
733.00	36349.30
734.00	36336.82
735.00	36437.46
736.00	36484.27
737.00	36850.17
738.00	37025.71
739.00	37367.43
740.00	37372.89
741.00	37546.87
742.00	37641.28
743.00	37586.66
744.00	37558.58
745.00	37609.29
746.00	37967.39
747.00	38189.74
748.00	38366.06
749.00	38533.02
750.00	38637.56
751.00	38707.00
752.00	39012.05
753.00	39056.52
754.00	39426.32
755.00	39337.38
756.00	39743.86
757.00	39703.29
758.00	39849.96
759.00	39824.22
760.00	39977.13
761.00	40142.53
762.00	40322.75
763.00	40455.38
764.00	40470.20
765.00	40470.20
766.00	40512.33
767.00	40798.66
768.00	40952.35
769.00	41234.78
770.00	41375.21
771.00	41461.81
772.00	41695.08
773.00	41822.25
774.00	42114.04
775.00	42095.32
776.00	42243.55
777.00	42512.71
778.00	42678.89
779.00	42852.87
780.00	42684.35
781.00	42866.13
782.00	42923.08
783.00	43083.80
784.00	43164.16
785.00	43398.21
786.00	43732.91
787.00	43906.11
788.00	44062.93
789.00	44145.62
790.00	44211.16
791.00	44305.56
792.00	44389.04
793.00	44556.00
794.00	44776.01
795.00	44949.99
796.00	45139.57
797.00	45111.49
798.00	45270.64
799.00	45317.45
800.00	45423.56
801.00	45413.41
802.00	45593.64
803.00	45769.18
804.00	45973.58
805.00	46140.54
806.00	46344.95
807.00	46298.92
808.00	46305.16
809.00	46354.31
810.00	46738.16
811.00	46930.86
812.00	46987.03
813.00	46944.12
814.00	47231.23
815.00	47353.72
816.00	47513.66
817.00	47318.61
818.00	47366.98
819.00	47414.57
820.00	47516.78
821.00	47640.82
822.00	47763.31
823.00	47828.85
824.00	48061.34
825.00	48217.38
826.00	48457.67
827.00	48666.76
828.00	48694.07
829.00	48790.81
830.00	48661.30
831.00	48739.32
832.00	48843.08
833.00	48887.55
834.00	48978.05
835.00	49020.96
836.00	49077.13
837.00	49176.22
838.00	49294.02
839.00	49478.14
840.00	49704.40
841.00	49962.64
842.00	50213.85
843.00	50360.53
844.00	50436.20
845.00	50640.61
846.00	50721.75
847.00	50887.93
848.00	50807.57
849.00	50845.02
850.00	50734.23
851.00	50830.19
852.00	50858.28
853.00	50935.52
854.00	51036.16
855.00	51141.49
856.00	51287.38
857.00	51348.23
858.00	51441.07
859.00	51488.66
860.00	51489.45
861.00	51509.73
862.00	51565.12
863.00	51696.19
864.00	51750.80
865.00	51786.69
866.00	51899.04
867.00	52011.38
868.00	52147.14
869.00	52282.11
870.00	52279.77
871.00	52417.08
872.00	52371.83
873.00	52542.69
874.00	52584.82
875.00	52699.50
876.00	52918.73
877.00	52885.18
878.00	53006.89
879.00	52921.85
880.00	53105.98
881.00	53095.05
882.00	53070.87
883.00	52995.97
884.00	52896.11
885.00	52943.70
886.00	53051.36
887.00	53278.39
888.00	53422.73
889.00	53502.31
890.00	53485.92
891.00	53515.57
892.00	53590.47
893.00	53556.14
894.00	53535.07
895.00	53497.62
896.00	53584.22
897.00	53681.75
898.00	53745.72
899.00	53900.20
900.00	54014.10
901.00	54170.14
902.00	54233.33
903.00	54283.26
904.00	54358.94
905.00	54504.06
906.00	54672.57
907.00	54637.47
908.00	54469.73
909.00	54491.57
910.00	54516.54
911.00	54669.45
912.00	54644.49
913.00	54776.34
914.00	54717.04
915.00	54672.57
916.00	54526.68
917.00	54602.36
918.00	54591.44
919.00	54606.26
920.00	54600.80
921.00	54695.98
922.00	54855.92
923.00	54922.23
924.00	54909.75
925.00	55031.46
926.00	55307.64
927.00	55474.60
928.00	55486.30
929.00	55473.04
930.00	55560.42
931.00	55485.52
932.00	55527.65
933.00	55495.66
934.00	55552.62
935.00	55469.92
936.00	55615.81
937.00	55686.03
938.00	55734.40
939.00	55701.63
940.00	55860.79
941.00	55895.11
942.00	55985.61
943.00	56058.95
944.00	56127.61
945.00	56188.46
946.00	56179.10
947.00	56171.30
948.00	56190.02
949.00	56230.59
950.00	56356.98
951.00	56435.00
952.00	56401.45
953.00	56343.72
954.00	56423.29
955.00	56532.52
956.00	56733.81
957.00	56672.95
958.00	56788.42
959.00	56825.87
960.00	56836.79
961.00	56816.50
962.00	56813.38
963.00	56968.64
964.00	57100.49
965.00	57184.75
966.00	57280.71
967.00	57393.84
968.00	57438.31
969.00	57393.84
970.00	57403.98
971.00	57519.45
972.00	57672.36
973.00	57652.86
974.00	57677.04
975.00	57680.16
976.00	57678.60
977.00	57620.09
978.00	57542.07
979.00	57613.07
980.00	57670.80
981.00	57876.77
982.00	57867.40
983.00	57901.73
984.00	57911.88
985.00	57889.25
986.00	57922.80
987.00	57769.88
988.00	57908.75
989.00	57915.00
990.00	58120.96
991.00	58106.92
992.00	58199.76
993.00	58176.36
994.00	58265.30
995.00	58407.29
996.00	58559.42
997.00	58766.17
998.00	58848.09
999.00	58975.26
1000.00	58981.50
1001.00	58972.14
1002.00	58825.46
1003.00	58622.62
1004.00	58525.88
1005.00	58566.44
1006.00	58720.92
1007.00	58873.84
1008.00	58889.44
1009.00	58749.01
1010.00	58685.03
1011.00	58702.98
1012.00	58951.07
1013.00	59028.31
1014.00	59104.77
1015.00	59098.53
1016.00	59164.84
1017.00	59179.67
1018.00	59210.09
1019.00	59314.64
1020.00	59410.60
1021.00	59564.29
1022.00	59556.49
1023.00	59497.98
1024.00	59352.08
1025.00	59380.95
1026.00	59553.37
1027.00	59710.97
1028.00	59743.73
1029.00	59643.09
1030.00	59582.24
1031.00	59632.95
1032.00	59740.61
1033.00	59844.38
1034.00	59862.32
1035.00	59919.27
1036.00	59936.44
1037.00	59943.46
1038.00	59976.23
1039.00	59903.67
1040.00	59965.31
1041.00	60032.40
1042.00	60165.81
1043.00	60275.82
1044.00	60285.18
1045.00	60385.04
1046.00	60449.80
1047.00	60449.02
1048.00	60485.68
1049.00	60452.92
1050.00	60640.16
1051.00	60672.93
1052.00	60708.82
1053.00	60607.39
1054.00	60518.45
1055.00	60389.72
1056.00	60356.95
1057.00	60475.54
1058.00	60669.81
1059.00	60750.94
1060.00	60811.02
1061.00	60771.23
1062.00	60880.45
1063.00	60835.20
1064.00	60850.03
1065.00	60765.77
1066.00	60804.78
1067.00	60863.29
1068.00	60936.63
1069.00	60914.78
1070.00	60928.05
1071.00	60963.93
1072.00	61079.40
1073.00	61117.63
1074.00	61097.34
1075.00	61131.67
1076.00	61165.22
1077.00	61285.37
1078.00	61328.28
1079.00	61455.45
1080.00	61452.33
1081.00	61584.18
1082.00	61617.72
1083.00	61663.75
1084.00	61638.79
1085.00	61622.40
1086.00	61607.58
1087.00	61570.13
1088.00	61531.90
1089.00	61610.70
1090.00	61672.34
1091.00	61700.42
1092.00	61688.72
1093.00	61621.62
1094.00	61655.17
1095.00	61652.05
1096.00	61692.62
1097.00	61772.98
1098.00	61825.25
1099.00	61883.76
1100.00	61860.36
1101.00	61897.03
1102.00	61893.13
1103.00	61881.42
1104.00	61925.89
1105.00	61982.85
1106.00	62080.37
1107.00	62099.09
1108.00	62148.24
1109.00	62138.10
1110.00	62262.15
1111.00	62156.05
1112.00	62135.76
1113.00	61936.82
1114.00	62057.74
1115.00	62052.28
1116.00	62065.55
1117.00	62056.18
1118.00	62038.24
1119.00	62087.39
1120.00	62120.16
1121.00	62200.52
1122.00	62337.83
1123.00	62345.63
1124.00	62410.38
1125.00	62284.00
1126.00	62300.38
1127.00	62213.00
1128.00	62301.94
1129.00	62234.84
1130.00	62307.40
1131.00	62333.15
1132.00	62453.29
1133.00	62439.25
1134.00	62360.45
1135.00	62275.41
1136.00	62269.17
1137.00	62333.15
1138.00	62369.82
1139.00	62443.93
1140.00	62531.31
1141.00	62606.99
1142.00	62598.41
1143.00	62543.80
1144.00	62569.54
1145.00	62581.24
1146.00	62661.60
1147.00	62624.93
1148.00	62674.09
1149.00	62649.12
1150.00	62653.02
1151.00	62548.48
1152.00	62534.43
1153.00	62558.62
1154.00	62546.14
1155.00	62416.63
1156.00	62413.51
1157.00	62482.16
1158.00	62591.39
1159.00	62669.40
1160.00	62763.81
1161.00	62848.06
1162.00	62802.03
1163.00	62724.02
1164.00	62540.67
1165.00	62573.44
1166.00	62647.56
1167.00	62857.43
1168.00	62899.56
1169.00	62973.67
1170.00	62973.67
1171.00	62936.23
1172.00	62855.87
1173.00	62833.24
1174.00	62802.81
1175.00	62784.87
1176.00	62764.59
1177.00	62795.79
1178.00	62791.89
1179.00	62791.89
1180.00	62845.72
1181.00	62819.98
1182.00	62836.36
1183.00	62784.09
1184.00	62914.38
1185.00	62908.92
1186.00	62902.68
1187.00	62887.85
1188.00	62983.04
1189.00	62976.01
1190.00	62971.33
1191.00	62891.76
1192.00	62871.47
1193.00	62779.41
1194.00	62787.99
1195.00	62851.19
1196.00	62871.47
1197.00	62884.73
1198.00	62873.03
1199.00	62965.09
1200.00	62988.50
1201.00	63042.33
1202.00	62977.57
1203.00	63063.39
1204.00	62984.60
1205.00	63107.86
1206.00	62972.89
1207.00	62997.86
1208.00	62909.70
1209.00	62963.53
1210.00	63086.80
1211.00	63117.23
1212.00	63173.40
1213.00	63165.60
1214.00	63110.99
1215.00	63051.69
1216.00	62919.06
1217.00	62944.03
1218.00	63007.22
1219.00	63121.13
1220.00	63118.01
1221.00	63051.69
1222.00	63011.90
1223.00	63102.40
1224.00	63105.52
1225.00	63088.36
1226.00	63056.37
1227.00	63054.81
1228.00	62991.62
1229.00	62971.33
1230.00	63010.34
1231.00	63135.95
1232.00	63126.59
1233.00	63114.89
1234.00	63054.81
1235.00	63142.97
1236.00	63269.36
1237.00	63370.00
