SpectraSuite Data File
++++++++++++++++++++++++++++++++++++
Date: Thu Nov 16 14:04:59 EST 2017
User: cheriyan
Dark Spectrum Present: No
Reference Spectrum Present: No
Number of Sampled Component Spectra: 1
Spectrometers: USB2+H05261
Integration Time (usec): 100000 (USB2+H05261)
Spectra Averaged: 1 (USB2+H05261)
Boxcar Smoothing: 1 (USB2+H05261)
Correct for Electrical Dark: No (USB2+H05261)
Strobe/Lamp Enabled: No (USB2+H05261)
Correct for Detector Non-linearity: No (USB2+H05261)
Correct for Stray Light: No (USB2+H05261)
Number of Pixels in Processed Spectrum: 2048
>>>>>Begin Processed Spectral Data<<<<<
0.00	372.15
1.00	372.15
2.00	354.20
3.00	327.67
4.00	280.86
5.00	258.24
6.00	238.73
7.00	249.66
8.00	252.00
9.00	256.68
10.00	252.78
11.00	251.22
12.00	264.48
13.00	275.40
14.00	242.64
15.00	226.25
16.00	220.79
17.00	266.82
18.00	267.60
19.00	278.52
20.00	284.77
21.00	288.67
22.00	306.61
23.00	358.88
24.00	541.44
25.00	683.44
26.00	809.05
27.00	837.91
28.00	873.80
29.00	846.49
30.00	845.71
31.00	841.03
32.00	870.68
33.00	885.50
34.00	873.02
35.00	857.42
36.00	851.17
37.00	840.25
38.00	879.26
39.00	915.15
40.00	962.74
41.00	987.71
42.00	986.93
43.00	977.56
44.00	983.03
45.00	983.81
46.00	1013.45
47.00	1016.57
48.00	1007.21
49.00	1008.77
50.00	1011.89
51.00	1011.11
52.00	1015.01
53.00	988.49
54.00	988.49
55.00	984.59
56.00	998.63
57.00	1007.21
58.00	1035.30
59.00	1043.10
60.00	1046.22
61.00	997.85
62.00	1003.31
63.00	1014.23
64.00	1046.22
65.00	1064.94
66.00	1078.21
67.00	1100.83
68.00	1110.97
69.00	1114.10
70.00	1109.41
71.00	1099.27
72.00	1091.47
73.00	1099.27
74.00	1093.81
75.00	1082.11
76.00	1054.02
77.00	1057.14
78.00	1099.27
79.00	1107.07
80.00	1151.54
81.00	1136.72
82.00	1180.41
83.00	1180.41
84.00	1190.55
85.00	1160.91
86.00	1130.48
87.00	1131.26
88.00	1181.19
89.00	1206.94
90.00	1226.44
91.00	1206.94
92.00	1213.96
93.00	1217.86
94.00	1231.90
95.00	1240.48
96.00	1241.26
97.00	1256.09
98.00	1256.87
99.00	1267.79
100.00	1271.69
101.00	1262.33
102.00	1229.56
103.00	1225.66
104.00	1226.44
105.00	1284.95
106.00	1281.83
107.00	1292.76
108.00	1272.47
109.00	1283.39
110.00	1306.80
111.00	1327.86
112.00	1352.05
113.00	1367.65
114.00	1386.38
115.00	1365.31
116.00	1353.61
117.00	1314.60
118.00	1352.83
119.00	1373.11
120.00	1414.46
121.00	1399.64
122.00	1401.20
123.00	1400.42
124.00	1419.14
125.00	1421.49
126.00	1433.19
127.00	1421.49
128.00	1437.09
129.00	1465.96
130.00	1492.48
131.00	1501.06
132.00	1502.62
133.00	1511.21
134.00	1511.99
135.00	1497.16
136.00	1522.91
137.00	1542.41
138.00	1523.69
139.00	1523.69
140.00	1513.55
141.00	1555.68
142.00	1532.27
143.00	1570.50
144.00	1571.28
145.00	1580.64
146.00	1591.56
147.00	1635.25
148.00	1649.30
149.00	1646.18
150.00	1648.52
151.00	1676.60
152.00	1706.25
153.00	1702.35
154.00	1722.63
155.00	1744.48
156.00	1740.58
157.00	1736.68
158.00	1707.03
159.00	1719.51
160.00	1744.48
161.00	1734.34
162.00	1777.25
163.00	1789.73
164.00	1836.54
165.00	1836.54
166.00	1864.63
167.00	1842.78
168.00	1848.24
169.00	1819.38
170.00	1847.46
171.00	1883.35
172.00	1901.30
173.00	1884.91
174.00	1859.17
175.00	1888.81
176.00	1958.25
177.00	1967.61
178.00	2002.72
179.00	1993.36
180.00	2012.86
181.00	2001.94
182.00	2054.21
183.00	2071.37
184.00	2077.62
185.00	2037.05
186.00	2026.90
187.00	2017.54
188.00	2036.27
189.00	2102.58
190.00	2161.87
191.00	2186.06
192.00	2182.94
193.00	2165.78
194.00	2175.92
195.00	2172.80
196.00	2183.72
197.00	2152.51
198.00	2153.29
199.00	2166.56
200.00	2210.25
201.00	2232.09
202.00	2273.44
203.00	2277.34
204.00	2286.70
205.00	2254.72
206.00	2281.24
207.00	2314.79
208.00	2341.32
209.00	2333.51
210.00	2378.76
211.00	2363.16
212.00	2414.65
213.00	2409.19
214.00	2456.78
215.00	2467.70
216.00	2455.22
217.00	2439.62
218.00	2466.92
219.00	2497.35
220.00	2520.76
221.00	2484.87
222.00	2471.61
223.00	2496.57
224.00	2527.78
225.00	2528.56
226.00	2591.75
227.00	2581.61
228.00	2652.61
229.00	2637.78
230.00	2679.13
231.00	2656.51
232.00	2641.68
233.00	2651.05
234.00	2683.81
235.00	2757.15
236.00	2800.06
237.00	2851.55
238.00	2835.17
239.00	2851.55
240.00	2820.35
241.00	2892.12
242.00	2908.51
243.00	2942.83
244.00	2904.60
245.00	2928.79
246.00	2931.13
247.00	3031.77
248.00	3041.92
249.00	3084.05
250.00	3027.09
251.00	3022.41
252.00	3011.49
253.00	3055.96
254.00	3113.69
255.00	3168.31
256.00	3157.38
257.00	3207.31
258.00	3252.56
259.00	3293.91
260.00	3311.08
261.00	3312.64
262.00	3350.09
263.00	3356.33
264.00	3384.41
265.00	3361.79
266.00	3400.80
267.00	3357.89
268.00	3385.19
269.00	3371.93
270.00	3447.61
271.00	3498.32
272.00	3588.04
273.00	3616.91
274.00	3628.61
275.00	3591.16
276.00	3601.30
277.00	3639.53
278.00	3624.71
279.00	3641.87
280.00	3639.53
281.00	3724.57
282.00	3745.64
283.00	3772.94
284.00	3755.78
285.00	3787.77
286.00	3794.01
287.00	3815.85
288.00	3818.97
289.00	3862.66
290.00	3902.45
291.00	3929.76
292.00	3903.23
293.00	3847.06
294.00	3877.49
295.00	3872.81
296.00	3946.92
297.00	3953.94
298.00	3979.69
299.00	3946.14
300.00	3952.38
301.00	3945.36
302.00	3958.63
303.00	3953.94
304.00	4032.74
305.00	4103.74
306.00	4107.64
307.00	4133.39
308.00	4120.12
309.00	4133.39
310.00	4094.38
311.00	4151.33
312.00	4185.66
313.00	4208.28
314.00	4154.45
315.00	4166.15
316.00	4234.03
317.00	4262.12
318.00	4276.16
319.00	4216.08
320.00	4237.15
321.00	4225.45
322.00	4241.05
323.00	4273.82
324.00	4339.35
325.00	4414.25
326.00	4423.61
327.00	4509.43
328.00	4552.34
329.00	4599.93
330.00	4558.58
331.00	4525.04
332.00	4509.43
333.00	4497.73
334.00	4542.20
335.00	4590.57
336.00	4620.22
337.00	4643.62
338.00	4673.27
339.00	4751.29
340.00	4758.31
341.00	4788.74
342.00	4789.52
343.00	4855.83
344.00	4861.29
345.00	4873.00
346.00	4916.69
347.00	4928.39
348.00	4972.08
349.00	4956.47
350.00	5010.31
351.00	4961.94
352.00	4972.86
353.00	4998.60
354.00	5068.82
355.00	5041.51
356.00	5002.50
357.00	5115.63
358.00	5195.99
359.00	5253.72
360.00	5196.77
361.00	5319.26
362.00	5298.97
363.00	5313.02
364.00	5224.08
365.00	5288.83
366.00	5318.48
367.00	5435.50
368.00	5465.15
369.00	5464.37
370.00	5369.19
371.00	5440.19
372.00	5464.37
373.00	5569.69
374.00	5540.83
375.00	5569.69
376.00	5565.79
377.00	5643.03
378.00	5699.98
379.00	5731.97
380.00	5736.65
381.00	5830.27
382.00	5875.52
383.00	5953.54
384.00	5834.18
385.00	5886.45
386.00	5916.87
387.00	6012.84
388.00	6083.05
389.00	6154.05
390.00	6227.39
391.00	6197.74
392.00	6226.61
393.00	6258.59
394.00	6323.35
395.00	6306.96
396.00	6321.79
397.00	6360.80
398.00	6423.99
399.00	6583.15
400.00	6584.71
401.00	6596.41
402.00	6596.41
403.00	6726.70
404.00	6826.56
405.00	6806.28
406.00	6776.63
407.00	6768.83
408.00	6771.17
409.00	6787.55
410.00	6764.15
411.00	6856.99
412.00	6852.31
413.00	6899.12
414.00	6845.29
415.00	6853.87
416.00	6854.65
417.00	6913.16
418.00	7008.34
419.00	7048.91
420.00	7037.99
421.00	7049.69
422.00	7090.26
423.00	7167.50
424.00	7124.59
425.00	7161.26
426.00	7105.87
427.00	7208.07
428.00	7199.49
429.00	7254.10
430.00	7176.86
431.00	7182.32
432.00	7207.29
433.00	7258.00
434.00	7259.56
435.00	7301.69
436.00	7327.44
437.00	7364.89
438.00	7354.74
439.00	7344.60
440.00	7396.09
441.00	7464.75
442.00	7581.78
443.00	7651.99
444.00	7668.38
445.00	7704.26
446.00	7767.46
447.00	7850.16
448.00	7840.79
449.00	7747.17
450.00	7732.35
451.00	7833.77
452.00	7923.49
453.00	7914.91
454.00	7898.53
455.00	7981.23
456.00	8104.50
457.00	8226.98
458.00	8209.04
459.00	8127.90
460.00	8005.41
461.00	8010.09
462.00	8127.12
463.00	8245.71
464.00	8318.26
465.00	8392.38
466.00	8398.62
467.00	8464.94
468.00	8336.99
469.00	8358.05
470.00	8353.37
471.00	8521.11
472.00	8568.70
473.00	8574.94
474.00	8691.97
475.00	8844.10
476.00	9008.72
477.00	9029.79
478.00	9059.43
479.00	9105.46
480.00	9078.16
481.00	9039.15
482.00	8908.08
483.00	8883.11
484.00	8929.92
485.00	9138.23
486.00	9288.81
487.00	9273.98
488.00	9296.61
489.00	9286.47
490.00	9376.19
491.00	9307.53
492.00	9401.93
493.00	9423.00
494.00	9509.60
495.00	9486.19
496.00	9535.34
497.00	9611.80
498.00	9611.80
499.00	9664.85
500.00	9644.57
501.00	9738.19
502.00	9743.65
503.00	9809.97
504.00	9848.19
505.00	9930.89
506.00	9898.13
507.00	9910.61
508.00	9982.38
509.00	10177.43
510.00	10272.61
511.00	10265.59
512.00	10315.52
513.00	10381.06
514.00	10411.48
515.00	10356.87
516.00	10388.86
517.00	10452.83
518.00	10504.32
519.00	10473.12
520.00	10510.57
521.00	10558.16
522.00	10565.18
523.00	10604.97
524.00	10576.10
525.00	10765.68
526.00	10796.89
527.00	10924.06
528.00	10884.27
529.00	10887.39
530.00	10845.26
531.00	10880.37
532.00	10938.88
533.00	11023.14
534.00	10995.84
535.00	11074.63
536.00	10984.91
537.00	10945.13
538.00	10846.04
539.00	10973.21
540.00	11093.36
541.00	11165.92
542.00	11230.67
543.00	11303.23
544.00	11396.07
545.00	11390.61
546.00	11382.81
547.00	11416.35
548.00	11487.35
549.00	11687.86
550.00	11842.33
551.00	11918.79
552.00	11849.35
553.00	11757.29
554.00	11777.58
555.00	11922.69
556.00	11972.62
557.00	12119.29
558.00	12115.39
559.00	12241.78
560.00	12268.31
561.00	12380.65
562.00	12419.66
563.00	12454.77
564.00	12421.22
565.00	12541.37
566.00	12727.83
567.00	12823.80
568.00	12770.74
569.00	12638.89
570.00	12784.01
571.00	13006.36
572.00	13102.32
573.00	13085.94
574.00	13088.28
575.00	13234.95
576.00	13465.10
577.00	13533.76
578.00	13666.39
579.00	13594.61
580.00	13735.04
581.00	13773.27
582.00	14024.49
583.00	14185.99
584.00	14398.20
585.00	14492.60
586.00	14572.96
587.00	14485.58
588.00	14304.57
589.00	14330.32
590.00	14446.57
591.00	14724.31
592.00	14979.43
593.00	15265.75
594.00	15375.76
595.00	15385.90
596.00	15449.10
597.00	15616.05
598.00	15854.01
599.00	16030.33
600.00	16132.53
601.00	16095.08
602.00	16070.90
603.00	16201.97
604.00	16396.23
605.00	16728.59
606.00	16863.56
607.00	16954.06
608.00	17005.55
609.00	17152.23
610.00	17302.02
611.00	17346.49
612.00	17437.77
613.00	17664.02
614.00	17802.11
615.00	17969.07
616.00	18054.11
617.00	18264.76
618.00	18530.80
619.00	18635.35
620.00	18787.48
621.00	18868.62
622.00	19110.47
623.00	19318.78
624.00	19449.07
625.00	19538.01
626.00	19499.00
627.00	19607.45
628.00	19716.67
629.00	20039.67
630.00	20227.69
631.00	20343.94
632.00	20359.54
633.00	20702.04
634.00	21053.90
635.00	21241.92
636.00	21337.10
637.00	21479.10
638.00	21682.72
639.00	21730.31
640.00	21794.29
641.00	21935.50
642.00	22112.60
643.00	22329.49
644.00	22522.19
645.00	22611.14
646.00	22576.81
647.00	22688.37
648.00	22974.70
649.00	23296.13
650.00	23472.45
651.00	23696.36
652.00	23840.70
653.00	24052.91
654.00	24219.86
655.00	24329.09
656.00	24439.09
657.00	24440.65
658.00	24683.29
659.00	24946.21
660.00	25247.36
661.00	25408.08
662.00	25531.34
663.00	25513.40
664.00	25731.85
665.00	25973.70
666.00	26245.99
667.00	26391.10
668.00	26573.66
669.00	26731.26
670.00	26857.65
671.00	26916.16
672.00	27121.35
673.00	27255.54
674.00	27481.01
675.00	27531.72
676.00	27733.79
677.00	27807.90
678.00	28073.95
679.00	28259.63
680.00	28460.13
681.00	28579.50
682.00	28766.74
683.00	28971.15
684.00	29240.31
685.00	29377.62
686.00	29441.60
687.00	29510.25
688.00	29696.72
689.00	30093.05
690.00	30145.32
691.00	30327.88
692.00	30293.55
693.00	30724.99
694.00	31116.64
695.00	31374.88
696.00	31472.40
697.00	31399.85
698.00	31721.28
699.00	31694.75
700.00	31980.30
701.00	31972.50
702.00	32351.66
703.00	32349.32
704.00	32824.45
705.00	32942.26
706.00	33383.84
707.00	33387.74
708.00	33587.47
709.00	33587.47
710.00	33759.11
711.00	33962.73
712.00	34099.26
713.00	34096.14
714.00	34203.03
715.00	34311.47
716.00	34341.12
717.00	34609.50
718.00	34600.92
719.00	34941.86
720.00	34803.77
721.00	35084.63
722.00	35163.43
723.00	35408.40
724.00	35496.56
725.00	35566.78
726.00	35578.48
727.00	35782.89
728.00	35955.31
729.00	36180.00
730.00	36259.58
731.00	36321.21
732.00	36518.60
733.00	36570.87
734.00	36635.63
735.00	36490.51
736.00	36489.73
737.00	36627.04
738.00	36857.20
739.00	37095.15
740.00	37411.90
741.00	37798.87
742.00	37895.61
743.00	37761.42
744.00	37757.52
745.00	37954.91
746.00	38228.75
747.00	38358.26
748.00	38573.59
749.00	38822.47
750.00	38864.60
751.00	38806.86
752.00	38941.05
753.00	39160.28
754.00	39500.44
755.00	39460.65
756.00	39773.50
757.00	39864.00
758.00	40261.90
759.00	40112.88
760.00	40195.58
761.00	40079.33
762.00	40252.53
763.00	40414.81
764.00	40558.36
765.00	40744.83
766.00	40805.68
767.00	40944.55
768.00	41077.96
769.00	41329.96
770.00	41568.69
771.00	41625.65
772.00	41810.55
773.00	41906.51
774.00	42000.13
775.00	41982.97
776.00	42157.73
777.00	42540.80
778.00	42816.20
779.00	42989.40
780.00	42852.09
781.00	42981.60
782.00	43020.61
783.00	43276.51
784.00	43279.63
785.00	43317.85
786.00	43498.86
787.00	43909.23
788.00	44323.51
789.00	44445.99
790.00	44405.42
791.00	44367.20
792.00	44518.55
793.00	44492.80
794.00	44707.35
795.00	44622.31
796.00	44894.60
797.00	44783.81
798.00	45107.58
799.00	45107.58
800.00	45376.75
801.00	45482.85
802.00	45883.08
803.00	45939.25
804.00	46091.39
805.00	46232.60
806.00	46474.46
807.00	46502.54
808.00	46560.28
809.00	46569.64
810.00	46793.55
811.00	46835.68
812.00	46929.30
813.00	47028.38
814.00	47118.88
815.00	47268.68
816.00	47313.93
817.00	47369.32
818.00	47282.72
819.00	47385.71
820.00	47470.75
821.00	47751.61
822.00	47851.47
823.00	47970.84
824.00	48009.85
825.00	48121.41
826.00	48303.20
827.00	48563.78
828.00	48604.34
829.00	48680.80
830.00	48665.98
831.00	48703.43
832.00	48800.17
833.00	48846.20
834.00	49082.59
835.00	49084.15
836.00	49375.16
837.00	49351.76
838.00	49529.64
839.00	49406.37
840.00	49573.33
841.00	49697.38
842.00	50017.25
843.00	50244.28
844.00	50412.02
845.00	50629.69
846.00	50739.69
847.00	50820.83
848.00	50767.00
849.00	50809.13
850.00	50735.01
851.00	50814.59
852.00	50869.98
853.00	51110.28
854.00	51183.62
855.00	51365.40
856.00	51486.32
857.00	51556.54
858.00	51561.22
859.00	51470.72
860.00	51520.65
861.00	51554.98
862.00	51714.14
863.00	51858.47
864.00	51934.15
865.00	51849.89
866.00	51831.16
867.00	51888.12
868.00	52069.12
869.00	52214.23
870.00	52372.61
871.00	52431.90
872.00	52447.50
873.00	52467.79
874.00	52494.32
875.00	52481.83
876.00	52646.45
877.00	52765.82
878.00	52887.53
879.00	52942.14
880.00	53052.92
881.00	53179.31
882.00	53091.93
883.00	53077.89
884.00	52947.60
885.00	53018.60
886.00	52978.81
887.00	53128.60
888.00	53187.11
889.00	53336.13
890.00	53411.02
891.00	53309.60
892.00	53463.30
893.00	53474.22
894.00	53656.78
895.00	53740.26
896.00	53851.83
897.00	53923.60
898.00	53838.56
899.00	53949.35
900.00	54015.66
901.00	54139.71
902.00	54196.66
903.00	54305.11
904.00	54452.56
905.00	54584.41
906.00	54624.20
907.00	54590.66
908.00	54380.79
909.00	54545.40
910.00	54475.97
911.00	54744.35
912.00	54518.88
913.00	54649.95
914.00	54530.58
915.00	54620.30
916.00	54627.32
917.00	54739.67
918.00	54904.29
919.00	54906.63
920.00	54880.88
921.00	54879.32
922.00	54886.34
923.00	54957.34
924.00	54946.42
925.00	55117.28
926.00	55267.07
927.00	55374.73
928.00	55478.50
929.00	55556.52
930.00	55512.83
931.00	55435.59
932.00	55466.80
933.00	55561.20
934.00	55625.95
935.00	55636.09
936.00	55705.53
937.00	55754.68
938.00	55728.16
939.00	55760.92
940.00	55792.13
941.00	55760.14
942.00	55859.23
943.00	55934.90
944.00	56136.19
945.00	56135.41
946.00	56253.22
947.00	56201.72
948.00	56196.26
949.00	56191.58
950.00	56258.68
951.00	56296.13
952.00	56273.50
953.00	56306.27
954.00	56381.16
955.00	56422.51
956.00	56498.97
957.00	56544.22
958.00	56747.85
959.00	56875.80
960.00	57077.86
961.00	57008.43
962.00	57098.15
963.00	57089.57
964.00	57247.16
965.00	57171.49
966.00	57243.26
967.00	57368.09
968.00	57442.21
969.00	57357.17
970.00	57315.04
971.00	57461.71
972.00	57612.29
973.00	57570.16
974.00	57488.24
975.00	57538.17
976.00	57515.54
977.00	57602.14
978.00	57577.96
979.00	57703.57
980.00	57659.88
981.00	57804.21
982.00	57803.43
983.00	57848.68
984.00	57872.87
985.00	57961.81
986.00	58060.11
987.00	57911.10
988.00	57915.00
989.00	57848.68
990.00	58004.72
991.00	57911.10
992.00	58028.90
993.00	58021.10
994.00	58300.40
995.00	58448.64
996.00	58665.53
997.00	58804.40
998.00	58909.72
999.00	58969.80
1000.00	58976.82
1001.00	58951.07
1002.00	58827.80
1003.00	58630.42
1004.00	58621.84
1005.00	58708.44
1006.00	58856.67
1007.00	58803.62
1008.00	58865.25
1009.00	58798.16
1010.00	58820.78
1011.00	58761.49
1012.00	58847.31
1013.00	58896.46
1014.00	59015.05
1015.00	59043.91
1016.00	59182.01
1017.00	59252.22
1018.00	59351.30
1019.00	59411.38
1020.00	59359.89
1021.00	59380.95
1022.00	59370.81
1023.00	59332.58
1024.00	59320.88
1025.00	59380.95
1026.00	59618.13
1027.00	59786.64
1028.00	59910.69
1029.00	59811.61
1030.00	59741.39
1031.00	59763.24
1032.00	59901.33
1033.00	60128.36
1034.00	60101.84
1035.00	60184.54
1036.00	60111.20
1037.00	60129.14
1038.00	60019.14
1039.00	59962.96
1040.00	59967.65
1041.00	60006.65
1042.00	60086.23
1043.00	60204.04
1044.00	60325.75
1045.00	60523.13
1046.00	60543.42
1047.00	60569.16
1048.00	60486.46
1049.00	60469.30
1050.00	60498.95
1051.00	60484.12
1052.00	60543.42
1053.00	60611.29
1054.00	60633.92
1055.00	60533.28
1056.00	60470.08
1057.00	60520.79
1058.00	60675.27
1059.00	60704.91
1060.00	60736.90
1061.00	60825.84
1062.00	60973.30
1063.00	60998.26
1064.00	60872.65
1065.00	60692.43
1066.00	60778.25
1067.00	60879.67
1068.00	60992.02
1069.00	60937.41
1070.00	60927.27
1071.00	60999.82
1072.00	61077.84
1073.00	61230.75
1074.00	61339.20
1075.00	61410.98
1076.00	61365.73
1077.00	61307.99
1078.00	61264.30
1079.00	61319.70
1080.00	61414.10
1081.00	61524.10
1082.00	61593.54
1083.00	61627.87
1084.00	61600.56
1085.00	61571.69
1086.00	61544.39
1087.00	61575.59
1088.00	61562.33
1089.00	61652.05
1090.00	61650.49
1091.00	61716.03
1092.00	61662.97
1093.00	61624.74
1094.00	61723.83
1095.00	61769.08
1096.00	61872.06
1097.00	61890.01
1098.00	61840.07
1099.00	61862.70
1100.00	61794.04
1101.00	61840.85
1102.00	61875.96
1103.00	61944.62
1104.00	61980.51
1105.00	62018.74
1106.00	62011.71
1107.00	62039.80
1108.00	62049.16
1109.00	62116.26
1110.00	62284.78
1111.00	62305.06
1112.00	62319.88
1113.00	62223.92
1114.00	62166.97
1115.00	62097.53
1116.00	62134.98
1117.00	62186.47
1118.00	62248.89
1119.00	62153.71
1120.00	62201.30
1121.00	62205.20
1122.00	62330.81
1123.00	62262.15
1124.00	62252.79
1125.00	62166.97
1126.00	62194.28
1127.00	62245.77
1128.00	62253.57
1129.00	62338.61
1130.00	62320.66
1131.00	62362.01
1132.00	62344.07
1133.00	62319.88
1134.00	62358.11
1135.00	62373.72
1136.00	62362.01
1137.00	62354.99
1138.00	62401.80
1139.00	62557.84
1140.00	62631.18
1141.00	62610.11
1142.00	62605.43
1143.00	62634.30
1144.00	62674.09
1145.00	62668.62
1146.00	62651.46
1147.00	62578.12
1148.00	62537.55
1149.00	62519.61
1150.00	62617.91
1151.00	62716.21
1152.00	62720.12
1153.00	62667.06
1154.00	62560.18
1155.00	62512.59
1156.00	62491.52
1157.00	62494.64
1158.00	62529.75
1159.00	62578.90
1160.00	62643.66
1161.00	62670.18
1162.00	62684.23
1163.00	62618.69
1164.00	62670.18
1165.00	62674.87
1166.00	62702.17
1167.00	62720.12
1168.00	62819.98
1169.00	62948.71
1170.00	62961.19
1171.00	62927.64
1172.00	62822.32
1173.00	62749.76
1174.00	62671.74
1175.00	62809.84
1176.00	62839.48
1177.00	62902.68
1178.00	62804.38
1179.00	62790.33
1180.00	62815.30
1181.00	62807.50
1182.00	62919.84
1183.00	62926.86
1184.00	62994.74
1185.00	62895.66
1186.00	62877.71
1187.00	62940.91
1188.00	63021.26
1189.00	63006.44
1190.00	62876.15
1191.00	62816.08
1192.00	62727.92
1193.00	62742.74
1194.00	62738.84
1195.00	62896.44
1196.00	62887.85
1197.00	62906.58
1198.00	62874.59
1199.00	62979.14
1200.00	63071.20
1201.00	63147.65
1202.00	63088.36
1203.00	63043.89
1204.00	62898.00
1205.00	62926.08
1206.00	62926.86
1207.00	62987.72
1208.00	63025.95
1209.00	63036.09
1210.00	63183.54
1211.00	63263.90
1212.00	63338.02
1213.00	63283.40
1214.00	63149.21
1215.00	63078.22
1216.00	63018.14
1217.00	62987.72
1218.00	62880.05
1219.00	62980.70
1220.00	63086.80
1221.00	63230.35
1222.00	63203.83
1223.00	63228.01
1224.00	63242.06
1225.00	63245.96
1226.00	63213.97
1227.00	63177.30
1228.00	63040.77
1229.00	62939.35
1230.00	62963.53
1231.00	63075.88
1232.00	63202.27
1233.00	63218.65
1234.00	63211.63
1235.00	63202.27
1236.00	63194.46
1237.00	63196.02
