SpectraSuite Data File
++++++++++++++++++++++++++++++++++++
Date: Thu Nov 16 14:09:02 EST 2017
User: cheriyan
Dark Spectrum Present: No
Reference Spectrum Present: No
Number of Sampled Component Spectra: 1
Spectrometers: USB2+H05261
Integration Time (usec): 100000 (USB2+H05261)
Spectra Averaged: 1 (USB2+H05261)
Boxcar Smoothing: 1 (USB2+H05261)
Correct for Electrical Dark: No (USB2+H05261)
Strobe/Lamp Enabled: No (USB2+H05261)
Correct for Detector Non-linearity: No (USB2+H05261)
Correct for Stray Light: No (USB2+H05261)
Number of Pixels in Processed Spectrum: 2048
>>>>>Begin Processed Spectral Data<<<<<
0.00	346.40
1.00	346.40
2.00	312.07
3.00	293.35
4.00	261.36
5.00	255.12
6.00	248.88
7.00	253.56
8.00	264.48
9.00	244.20
10.00	247.32
11.00	246.54
12.00	257.46
13.00	252.78
14.00	216.11
15.00	201.29
16.00	197.39
17.00	220.01
18.00	237.95
19.00	255.12
20.00	280.08
21.00	291.01
22.00	315.19
23.00	350.30
24.00	461.09
25.00	547.69
26.00	645.99
27.00	649.89
28.00	650.67
29.00	655.35
30.00	661.59
31.00	653.01
32.00	642.87
33.00	682.66
34.00	682.66
35.00	704.50
36.00	687.34
37.00	716.98
38.00	716.98
39.00	736.49
40.00	746.63
41.00	749.75
42.00	735.71
43.00	736.49
44.00	758.33
45.00	774.72
46.00	761.45
47.00	747.41
48.00	779.40
49.00	805.14
50.00	832.45
51.00	791.10
52.00	816.07
53.00	805.92
54.00	823.09
55.00	818.41
56.00	767.70
57.00	761.45
58.00	743.51
59.00	808.26
60.00	793.44
61.00	791.10
62.00	784.86
63.00	795.78
64.00	811.39
65.00	817.63
66.00	813.73
67.00	823.09
68.00	823.09
69.00	839.47
70.00	832.45
71.00	841.81
72.00	844.15
73.00	856.64
74.00	851.95
75.00	848.05
76.00	820.75
77.00	819.19
78.00	849.61
79.00	873.80
80.00	876.14
81.00	860.54
82.00	853.52
83.00	855.86
84.00	875.36
85.00	883.16
86.00	873.02
87.00	884.72
88.00	920.61
89.00	942.46
90.00	927.63
91.00	894.08
92.00	897.21
93.00	908.91
94.00	947.92
95.00	974.44
96.00	961.96
97.00	912.81
98.00	869.12
99.00	874.58
100.00	922.95
101.00	928.41
102.00	915.15
103.00	929.97
104.00	940.90
105.00	982.24
106.00	972.10
107.00	1004.09
108.00	1014.23
109.00	1007.99
110.00	993.17
111.00	998.63
112.00	1022.81
113.00	1025.15
114.00	987.71
115.00	990.83
116.00	1004.09
117.00	1024.37
118.00	1001.75
119.00	998.63
120.00	998.63
121.00	1016.57
122.00	1018.13
123.00	1039.98
124.00	1043.88
125.00	1029.84
126.00	1010.33
127.00	1019.69
128.00	1036.86
129.00	1043.10
130.00	1020.47
131.00	1032.18
132.00	1032.18
133.00	1063.38
134.00	1093.81
135.00	1135.16
136.00	1149.98
137.00	1134.38
138.00	1128.92
139.00	1132.04
140.00	1166.37
141.00	1177.29
142.00	1188.21
143.00	1135.94
144.00	1132.04
145.00	1121.12
146.00	1135.16
147.00	1153.10
148.00	1157.00
149.00	1197.57
150.00	1196.79
151.00	1213.96
152.00	1224.88
153.00	1234.24
154.00	1263.11
155.00	1278.71
156.00	1248.29
157.00	1235.80
158.00	1231.90
159.00	1268.57
160.00	1275.59
161.00	1278.71
162.00	1308.36
163.00	1299.78
164.00	1326.30
165.00	1284.95
166.00	1299.00
167.00	1288.07
168.00	1333.33
169.00	1338.01
170.00	1327.86
171.00	1316.94
172.00	1317.72
173.00	1369.21
174.00	1384.04
175.00	1394.18
176.00	1357.51
177.00	1359.07
178.00	1375.45
179.00	1401.20
180.00	1400.42
181.00	1400.42
182.00	1409.00
183.00	1419.92
184.00	1435.53
185.00	1406.66
186.00	1401.20
187.00	1387.16
188.00	1404.32
189.00	1433.97
190.00	1464.40
191.00	1487.80
192.00	1488.58
193.00	1511.21
194.00	1526.81
195.00	1546.31
196.00	1567.38
197.00	1543.97
198.00	1549.43
199.00	1504.96
200.00	1511.21
201.00	1534.61
202.00	1543.19
203.00	1578.30
204.00	1528.37
205.00	1561.14
206.00	1526.03
207.00	1606.39
208.00	1616.53
209.00	1633.69
210.00	1589.22
211.00	1601.71
212.00	1643.06
213.00	1672.70
214.00	1676.60
215.00	1671.14
216.00	1687.53
217.00	1678.16
218.00	1658.66
219.00	1666.46
220.00	1669.58
221.00	1724.97
222.00	1728.10
223.00	1776.47
224.00	1798.31
225.00	1821.72
226.00	1815.48
227.00	1792.07
228.00	1735.90
229.00	1718.73
230.00	1695.33
231.00	1764.76
232.00	1795.97
233.00	1861.51
234.00	1881.01
235.00	1859.17
236.00	1852.92
237.00	1848.24
238.00	1884.13
239.00	1930.16
240.00	1952.79
241.00	1962.15
242.00	1977.75
243.00	1977.75
244.00	2001.16
245.00	1934.84
246.00	1941.08
247.00	1934.06
248.00	1999.60
249.00	2024.56
250.00	2062.79
251.00	2040.95
252.00	2023.78
253.00	2045.63
254.00	2100.24
255.00	2154.07
256.00	2165.78
257.00	2170.46
258.00	2186.84
259.00	2200.10
260.00	2210.25
261.00	2191.52
262.00	2207.13
263.00	2192.30
264.00	2215.71
265.00	2225.07
266.00	2267.20
267.00	2289.04
268.00	2279.68
269.00	2300.75
270.00	2296.85
271.00	2279.68
272.00	2292.94
273.00	2311.67
274.00	2355.36
275.00	2345.22
276.00	2342.88
277.00	2351.46
278.00	2370.96
279.00	2412.31
280.00	2416.99
281.00	2437.28
282.00	2439.62
283.00	2500.47
284.00	2481.75
285.00	2459.90
286.00	2413.87
287.00	2445.08
288.00	2526.22
289.00	2548.06
290.00	2554.30
291.00	2491.89
292.00	2500.47
293.00	2530.12
294.00	2607.36
295.00	2640.12
296.00	2644.81
297.00	2563.67
298.00	2568.35
299.00	2581.61
300.00	2629.20
301.00	2580.05
302.00	2576.15
303.00	2619.84
304.00	2711.90
305.00	2732.97
306.00	2718.92
307.00	2713.46
308.00	2711.90
309.00	2715.80
310.00	2701.76
311.00	2736.09
312.00	2735.31
313.00	2768.07
314.00	2744.67
315.00	2776.66
316.00	2758.71
317.00	2779.00
318.00	2791.48
319.00	2829.71
320.00	2878.86
321.00	2850.77
322.00	2802.40
323.00	2802.40
324.00	2885.88
325.00	2934.25
326.00	2970.92
327.00	2974.82
328.00	2984.18
329.00	2998.23
330.00	2981.06
331.00	3030.21
332.00	2968.58
333.00	3001.35
334.00	2995.89
335.00	3035.67
336.00	3023.19
337.00	3082.49
338.00	3091.07
339.00	3111.35
340.00	3069.22
341.00	3099.65
342.00	3098.09
343.00	3153.48
344.00	3190.15
345.00	3239.30
346.00	3278.31
347.00	3251.00
348.00	3242.42
349.00	3232.28
350.00	3222.92
351.00	3256.47
352.00	3260.37
353.00	3332.92
354.00	3326.68
355.00	3290.01
356.00	3300.16
357.00	3375.83
358.00	3420.30
359.00	3435.91
360.00	3403.92
361.00	3459.31
362.00	3488.18
363.00	3492.86
364.00	3481.94
365.00	3455.41
366.00	3458.53
367.00	3455.41
368.00	3496.76
369.00	3531.09
370.00	3522.51
371.00	3495.98
372.00	3497.54
373.00	3547.47
374.00	3550.59
375.00	3566.20
376.00	3570.88
377.00	3595.84
378.00	3613.01
379.00	3617.69
380.00	3654.36
381.00	3683.22
382.00	3769.82
383.00	3836.14
384.00	3882.95
385.00	3868.91
386.00	3908.69
387.00	3957.85
388.00	3968.77
389.00	3981.25
390.00	3962.53
391.00	3988.27
392.00	4040.54
393.00	4090.48
394.00	4120.90
395.00	4063.17
396.00	4086.58
397.00	4117.78
398.00	4219.21
399.00	4262.90
400.00	4293.32
401.00	4266.02
402.00	4272.26
403.00	4299.56
404.00	4387.72
405.00	4445.46
406.00	4496.17
407.00	4450.92
408.00	4372.90
409.00	4316.73
410.00	4357.30
411.00	4456.38
412.00	4505.53
413.00	4495.39
414.00	4468.86
415.00	4486.03
416.00	4491.49
417.00	4525.04
418.00	4542.20
419.00	4535.96
420.00	4535.18
421.00	4557.80
422.00	4538.30
423.00	4541.42
424.00	4510.21
425.00	4562.48
426.00	4556.24
427.00	4560.14
428.00	4559.36
429.00	4585.11
430.00	4622.56
431.00	4638.16
432.00	4625.68
433.00	4676.39
434.00	4746.61
435.00	4775.47
436.00	4692.77
437.00	4703.70
438.00	4762.99
439.00	4858.17
440.00	4852.71
441.00	4861.29
442.00	4857.39
443.00	4896.40
444.00	4929.95
445.00	4928.39
446.00	4928.39
447.00	4944.77
448.00	4977.54
449.00	5016.55
450.00	4982.22
451.00	4997.82
452.00	4917.47
453.00	4940.87
454.00	4930.73
455.00	5026.69
456.00	5121.87
457.00	5169.46
458.00	5185.85
459.00	5138.26
460.00	5164.78
461.00	5210.81
462.00	5297.41
463.00	5312.24
464.00	5312.24
465.00	5298.97
466.00	5380.89
467.00	5388.69
468.00	5412.10
469.00	5401.18
470.00	5417.56
471.00	5458.91
472.00	5474.51
473.00	5574.38
474.00	5614.95
475.00	5652.39
476.00	5659.42
477.00	5685.94
478.00	5756.16
479.00	5831.83
480.00	5791.27
481.00	5837.30
482.00	5761.62
483.00	5778.78
484.00	5735.09
485.00	5776.44
486.00	5827.93
487.00	5856.80
488.00	5852.12
489.00	5920.78
490.00	5945.74
491.00	5951.98
492.00	5920.00
493.00	5913.75
494.00	5975.39
495.00	6021.42
496.00	6074.47
497.00	6164.97
498.00	6195.40
499.00	6177.45
500.00	6133.76
501.00	6169.65
502.00	6260.15
503.00	6270.30
504.00	6313.20
505.00	6334.27
506.00	6377.18
507.00	6381.86
508.00	6386.54
509.00	6434.13
510.00	6468.46
511.00	6537.90
512.00	6519.95
513.00	6526.19
514.00	6542.58
515.00	6693.15
516.00	6739.96
517.00	6757.91
518.00	6698.61
519.00	6676.77
520.00	6718.12
521.00	6769.61
522.00	6805.50
523.00	6814.86
524.00	6834.36
525.00	6885.08
526.00	6822.66
527.00	6803.16
528.00	6775.07
529.00	6874.15
530.00	6912.38
531.00	6918.62
532.00	6888.98
533.00	6871.03
534.00	6895.22
535.00	6943.59
536.00	6921.74
537.00	6963.87
538.00	6947.49
539.00	7002.88
540.00	6988.84
541.00	7033.31
542.00	7123.03
543.00	7225.23
544.00	7325.10
545.00	7378.15
546.00	7317.29
547.00	7284.53
548.00	7289.21
549.00	7461.63
550.00	7565.39
551.00	7563.05
552.00	7527.94
553.00	7488.15
554.00	7515.46
555.00	7567.73
556.00	7590.36
557.00	7617.66
558.00	7626.25
559.00	7670.72
560.00	7757.32
561.00	7856.40
562.00	7910.23
563.00	7913.35
564.00	7920.37
565.00	7996.05
566.00	8109.96
567.00	8151.31
568.00	8205.14
569.00	8206.70
570.00	8264.43
571.00	8339.33
572.00	8343.23
573.00	8347.91
574.00	8284.72
575.00	8374.44
576.00	8527.35
577.00	8612.39
578.00	8642.04
579.00	8593.67
580.00	8652.96
581.00	8765.31
582.00	8790.27
583.00	8848.01
584.00	8848.79
585.00	8968.93
586.00	9102.34
587.00	9148.37
588.00	9139.79
589.00	9152.27
590.00	9193.62
591.00	9279.44
592.00	9357.46
593.00	9505.70
594.00	9632.86
595.00	9729.61
596.00	9826.35
597.00	9912.17
598.00	9971.46
599.00	10115.80
600.00	10246.87
601.00	10328.00
602.00	10342.05
603.00	10328.78
604.00	10470.00
605.00	10610.43
606.00	10707.95
607.00	10701.71
608.00	10704.83
609.00	10669.72
610.00	10744.62
611.00	10696.25
612.00	10847.60
613.00	10956.83
614.00	11044.21
615.00	11140.17
616.00	11121.45
617.00	11317.27
618.00	11441.32
619.00	11601.26
620.00	11661.33
621.00	11790.84
622.00	11850.13
623.00	12015.53
624.00	12080.28
625.00	12224.62
626.00	12219.94
627.00	12183.27
628.00	12181.71
629.00	12419.66
630.00	12719.25
631.00	12869.83
632.00	12894.01
633.00	13021.96
634.00	13136.65
635.00	13171.75
636.00	13114.02
637.00	13244.31
638.00	13479.15
639.00	13556.38
640.00	13578.23
641.00	13533.76
642.00	13639.08
643.00	13763.91
644.00	13914.48
645.00	14041.65
646.00	14209.39
647.00	14238.26
648.00	14350.60
649.00	14453.59
650.00	14665.80
651.00	14760.20
652.00	14793.75
653.00	14837.44
654.00	14956.02
655.00	15072.27
656.00	15179.15
657.00	15252.49
658.00	15321.15
659.00	15386.68
660.00	15505.27
661.00	15692.51
662.00	15860.25
663.00	15927.35
664.00	15993.66
665.00	16122.39
666.00	16331.48
667.00	16464.11
668.00	16460.21
669.00	16510.92
670.00	16639.65
671.00	16788.66
672.00	16815.97
673.00	16851.08
674.00	16900.23
675.00	17061.73
676.00	17149.89
677.00	17255.99
678.00	17296.56
679.00	17462.74
680.00	17607.85
681.00	17836.44
682.00	17924.60
683.00	18072.06
684.00	18139.93
685.00	18214.83
686.00	18391.15
687.00	18470.73
688.00	18686.06
689.00	18722.73
690.00	18917.77
691.00	18908.41
692.00	19043.38
693.00	19127.64
694.00	19199.41
695.00	19302.40
696.00	19292.26
697.00	19469.36
698.00	19526.31
699.00	19564.54
700.00	19596.53
701.00	19627.73
702.00	19797.03
703.00	19948.39
704.00	20127.83
705.00	20329.11
706.00	20429.76
707.00	20515.58
708.00	20583.45
709.00	20712.18
710.00	20801.90
711.00	20950.92
712.00	21064.04
713.00	21323.84
714.00	21359.73
715.00	21450.23
716.00	21338.66
717.00	21507.96
718.00	21555.55
719.00	21750.60
720.00	21770.10
721.00	21813.01
722.00	21955.01
723.00	22014.30
724.00	22181.26
725.00	22097.78
726.00	22054.09
727.00	22231.19
728.00	22404.39
729.00	22785.12
730.00	22711.78
731.00	22686.03
732.00	22474.60
733.00	22417.65
734.00	22542.48
735.00	22742.99
736.00	22945.05
737.00	23106.55
738.00	23077.68
739.00	23270.39
740.00	23296.91
741.00	23586.36
742.00	23556.71
743.00	23683.10
744.00	23697.14
745.00	23843.82
746.00	24027.16
747.00	24143.41
748.00	24071.63
749.00	23924.18
750.00	23962.40
751.00	23995.95
752.00	24233.91
753.00	24166.03
754.00	24418.81
755.00	24320.51
756.00	24538.96
757.00	24563.14
758.00	24719.18
759.00	24719.18
760.00	24778.47
761.00	24934.51
762.00	25204.45
763.00	25358.14
764.00	25438.50
765.00	25389.35
766.00	25633.55
767.00	25727.95
768.00	25895.69
769.00	25923.77
770.00	26086.83
771.00	26083.71
772.00	26263.15
773.00	26269.39
774.00	26504.23
775.00	26476.14
776.00	26493.30
777.00	26543.24
778.00	26666.50
779.00	26796.79
780.00	26818.64
781.00	26889.63
782.00	27042.55
783.00	27245.40
784.00	27218.87
785.00	27312.49
786.00	27321.07
787.00	27694.78
788.00	27846.91
789.00	28078.63
790.00	27991.25
791.00	28027.92
792.00	27924.93
793.00	27909.33
794.00	27943.66
795.00	28066.92
796.00	28224.52
797.00	28248.71
798.00	28301.76
799.00	28356.37
800.00	28538.93
801.00	28680.92
802.00	28856.46
803.00	28857.24
804.00	28849.44
805.00	28900.15
806.00	28922.00
807.00	28918.10
808.00	29093.64
809.00	29363.58
810.00	29653.81
811.00	29656.93
812.00	29702.96
813.00	29775.52
814.00	29978.36
815.00	30156.24
816.00	30313.06
817.00	30254.54
818.00	30171.85
819.00	30086.81
820.00	30159.36
821.00	30323.98
822.00	30467.53
823.00	30584.56
824.00	30531.51
825.00	30600.16
826.00	30451.93
827.00	30682.08
828.00	30735.91
829.00	30945.78
830.00	31120.54
831.00	31381.90
832.00	31638.58
833.00	31559.78
834.00	31463.04
835.00	31373.32
836.00	31438.08
837.00	31650.28
838.00	31835.19
839.00	32077.82
840.00	31989.66
841.00	32013.07
842.00	32016.97
843.00	32226.84
844.00	32259.60
845.00	32364.15
846.00	32442.95
847.00	32630.19
848.00	32592.74
849.00	32634.09
850.00	32605.22
851.00	32701.18
852.00	32723.81
853.00	32772.96
854.00	32786.22
855.00	32817.43
856.00	32833.04
857.00	33032.76
858.00	33223.90
859.00	33350.29
860.00	33165.39
861.00	33152.13
862.00	33401.00
863.00	33752.87
864.00	33886.28
865.00	33851.95
866.00	34023.59
867.00	34240.48
868.00	34590.78
869.00	34752.27
870.00	34810.01
871.00	34750.71
872.00	34628.23
873.00	34676.60
874.00	34653.19
875.00	34636.03
876.00	34746.03
877.00	34786.60
878.00	34856.04
879.00	34906.75
880.00	34930.16
881.00	35122.08
882.00	34977.75
883.00	34935.62
884.00	34667.23
885.00	34731.21
886.00	34884.12
887.00	35150.17
888.00	35354.57
889.00	35609.69
890.00	35651.82
891.00	35683.81
892.00	35693.95
893.00	35718.92
894.00	35762.61
895.00	35792.25
896.00	36123.83
897.00	36253.34
898.00	36296.25
899.00	36306.39
900.00	36368.80
901.00	36704.28
902.00	36805.70
903.00	37082.67
904.00	36995.29
905.00	37095.93
906.00	36887.62
907.00	36789.32
908.00	36600.52
909.00	36983.58
910.00	36945.36
911.00	37053.80
912.00	36680.10
913.00	36733.15
914.00	36616.90
915.00	36838.47
916.00	36866.56
917.00	36970.32
918.00	37033.52
919.00	37079.55
920.00	37311.26
921.00	37432.97
922.00	37848.02
923.00	37818.38
924.00	37693.55
925.00	37563.26
926.00	37752.06
927.00	37691.21
928.00	37762.20
929.00	37780.15
930.00	37996.26
931.00	38188.96
932.00	38374.64
933.00	38592.31
934.00	38456.56
935.00	38260.74
936.00	38243.57
937.00	38391.03
938.00	38376.98
939.00	38447.98
940.00	38478.41
941.00	38663.31
942.00	38646.15
943.00	38784.24
944.00	38819.35
945.00	38896.58
946.00	38948.85
947.00	39008.93
948.00	39219.58
949.00	39291.35
950.00	39398.24
951.00	39166.52
952.00	39044.82
953.00	38964.46
954.00	39122.83
955.00	39271.85
956.00	39448.95
957.00	39600.30
958.00	39819.53
959.00	40003.66
960.00	40148.77
961.00	40079.33
962.00	40220.55
963.00	40248.63
964.00	40538.86
965.00	40442.90
966.00	40662.13
967.00	40745.61
968.00	40962.50
969.00	40882.92
970.00	40982.00
971.00	41218.39
972.00	41350.24
973.00	41338.54
974.00	41346.34
975.00	41321.38
976.00	41115.41
977.00	40808.02
978.00	40641.84
979.00	40449.14
980.00	40522.48
981.00	40746.39
982.00	41017.89
983.00	41126.33
984.00	41442.31
985.00	41555.43
986.00	41682.60
987.00	41416.56
988.00	41801.97
989.00	41677.92
990.00	41861.26
991.00	41526.56
992.00	41862.04
993.00	41758.28
994.00	41989.21
995.00	41918.99
996.00	42077.37
997.00	42293.48
998.00	42462.78
999.00	42683.57
1000.00	42722.58
1001.00	42853.65
1002.00	42813.08
1003.00	42748.32
1004.00	42834.92
1005.00	42866.13
1006.00	42880.95
1007.00	42835.70
1008.00	42982.38
1009.00	42980.04
1010.00	43032.31
1011.00	42976.14
1012.00	43245.30
1013.00	43218.77
1014.00	43166.50
1015.00	42906.70
1016.00	43005.78
1017.00	43396.65
1018.00	43699.36
1019.00	43898.31
1020.00	43564.39
1021.00	43469.99
1022.00	43175.08
1023.00	43133.73
1024.00	43178.98
1025.00	43326.44
1026.00	43781.28
1027.00	43986.47
1028.00	44364.07
1029.00	44258.75
1030.00	44307.12
1031.00	44222.08
1032.00	44441.31
1033.00	44684.73
1034.00	44722.18
1035.00	44641.04
1036.00	44406.98
1037.00	44486.56
1038.00	44654.30
1039.00	44739.34
1040.00	44780.69
1041.00	44780.69
1042.00	44955.45
1043.00	45205.89
1044.00	45355.68
1045.00	45398.59
1046.00	45325.25
1047.00	45018.64
1048.00	44982.76
1049.00	44844.66
1050.00	45331.50
1051.00	45492.99
1052.00	45823.79
1053.00	45806.62
1054.00	45866.70
1055.00	45781.66
1056.00	45855.78
1057.00	46043.80
1058.00	46146.00
1059.00	46101.53
1060.00	46075.79
1061.00	46110.11
1062.00	46192.03
1063.00	45990.75
1064.00	45955.64
1065.00	46060.18
1066.00	46240.40
1067.00	46476.02
1068.00	46490.06
1069.00	46504.88
1070.00	46394.10
1071.00	46231.82
1072.00	46209.98
1073.00	46288.77
1074.00	46654.68
1075.00	46826.32
1076.00	46827.10
1077.00	46632.83
1078.00	46788.09
1079.00	46709.29
1080.00	46678.86
1081.00	46575.10
1082.00	46660.92
1083.00	46692.13
1084.00	46703.05
1085.00	46820.86
1086.00	46933.20
1087.00	46886.39
1088.00	46921.50
1089.00	47104.84
1090.00	47330.31
1091.00	47415.35
1092.00	47320.17
1093.00	47253.08
1094.00	47395.07
1095.00	47679.83
1096.00	47828.07
1097.00	47708.70
1098.00	47649.41
1099.00	47670.47
1100.00	47724.30
1101.00	47649.41
1102.00	47657.21
1103.00	47875.66
1104.00	47979.42
1105.00	48100.35
1106.00	48014.53
1107.00	48136.24
1108.00	48110.49
1109.00	48240.78
1110.00	48282.91
1111.00	48355.47
1112.00	48304.76
1113.00	48157.30
1114.00	48108.15
1115.00	47923.25
1116.00	47864.74
1117.00	47887.36
1118.00	48025.45
1119.00	48154.96
1120.00	48167.44
1121.00	48161.98
1122.00	48175.25
1123.00	48104.25
1124.00	48237.66
1125.00	48218.94
1126.00	48211.13
1127.00	48237.66
1128.00	48363.27
1129.00	48474.06
1130.00	48470.15
1131.00	48493.56
1132.00	48548.95
1133.00	48523.99
1134.00	48460.01
1135.00	48393.70
1136.00	48427.24
1137.00	48491.22
1138.00	48524.77
1139.00	48551.29
1140.00	48633.21
1141.00	48869.61
1142.00	49020.96
1143.00	48964.79
1144.00	48775.20
1145.00	48631.65
1146.00	48717.47
1147.00	48726.05
1148.00	48875.07
1149.00	48950.74
1150.00	49010.04
1151.00	49020.18
1152.00	49050.61
1153.00	49322.89
1154.00	49270.62
1155.00	49213.66
1156.00	48983.51
1157.00	48992.87
1158.00	48898.47
1159.00	49124.72
1160.00	49300.26
1161.00	49489.07
1162.00	49515.59
1163.00	49560.84
1164.00	49506.23
1165.00	49585.81
1166.00	49414.95
1167.00	49531.20
1168.00	49382.18
1169.00	49297.14
1170.00	49159.05
1171.00	48988.19
1172.00	48999.12
1173.00	48983.51
1174.00	49065.43
1175.00	49191.82
1176.00	49163.73
1177.00	49180.12
1178.00	49173.88
1179.00	49349.42
1180.00	49499.21
1181.00	49574.11
1182.00	49667.73
1183.00	49743.41
1184.00	49792.56
1185.00	49819.08
1186.00	49803.48
1187.00	49806.60
1188.00	49822.98
1189.00	49779.29
1190.00	49791.78
1191.00	49755.11
1192.00	49654.47
1193.00	49542.90
1194.00	49448.50
1195.00	49645.10
1196.00	49733.26
1197.00	49794.90
1198.00	49733.26
1199.00	49759.01
1200.00	49659.93
1201.00	49650.56
1202.00	49642.76
1203.00	49894.76
1204.00	50027.39
1205.00	50049.24
1206.00	50129.59
1207.00	50121.79
1208.00	50219.31
1209.00	49995.40
1210.00	49909.58
1211.00	49798.02
1212.00	49964.20
1213.00	49790.22
1214.00	49776.95
1215.00	49743.41
1216.00	49847.17
1217.00	49768.37
1218.00	49735.60
1219.00	49842.49
1220.00	49943.13
1221.00	49800.36
1222.00	49686.45
1223.00	49788.66
1224.00	49757.45
1225.00	49738.72
1226.00	49776.95
1227.00	49944.69
1228.00	50057.82
1229.00	49905.68
1230.00	49943.13
1231.00	50158.46
1232.00	50309.82
1233.00	50470.53
1234.00	50365.21
1235.00	50497.06
1236.00	50552.45
1237.00	50389.39
1238.00	50265.34
1239.00	50154.56
1240.00	50306.69
1241.00	50519.68
1242.00	50687.42
1243.00	50975.31
1244.00	50920.70
1245.00	51008.08
1246.00	50973.75
