SpectraSuite Data File
++++++++++++++++++++++++++++++++++++
Date: Thu Nov 16 14:06:20 EST 2017
User: cheriyan
Dark Spectrum Present: No
Reference Spectrum Present: No
Number of Sampled Component Spectra: 1
Spectrometers: USB2+H05261
Integration Time (usec): 100000 (USB2+H05261)
Spectra Averaged: 1 (USB2+H05261)
Boxcar Smoothing: 1 (USB2+H05261)
Correct for Electrical Dark: No (USB2+H05261)
Strobe/Lamp Enabled: No (USB2+H05261)
Correct for Detector Non-linearity: No (USB2+H05261)
Correct for Stray Light: No (USB2+H05261)
Number of Pixels in Processed Spectrum: 2048
>>>>>Begin Processed Spectral Data<<<<<
0.00	339.38
1.00	339.38
2.00	332.36
3.00	335.48
4.00	313.63
5.00	289.45
6.00	244.98
7.00	229.37
8.00	216.11
9.00	237.17
10.00	245.76
11.00	268.38
12.00	277.74
13.00	259.80
14.00	249.66
15.00	244.98
16.00	245.76
17.00	248.88
18.00	230.15
19.00	237.17
20.00	246.54
21.00	262.14
22.00	284.77
23.00	354.98
24.00	520.38
25.00	699.82
26.00	802.80
27.00	831.67
28.00	816.85
29.00	844.15
30.00	830.11
31.00	866.00
32.00	882.38
33.00	901.11
34.00	898.77
35.00	890.96
36.00	927.63
37.00	932.31
38.00	913.59
39.00	886.28
40.00	900.33
41.00	939.34
42.00	966.64
43.00	951.04
44.00	968.98
45.00	963.52
46.00	995.51
47.00	1002.53
48.00	1000.97
49.00	1004.09
50.00	1007.99
51.00	1007.21
52.00	1035.30
53.00	1025.15
54.00	1038.42
55.00	1036.08
56.00	1014.23
57.00	1025.15
58.00	1027.50
59.00	1021.25
60.00	1032.18
61.00	988.49
62.00	1022.81
63.00	1035.30
64.00	1093.03
65.00	1128.14
66.00	1108.63
67.00	1078.21
68.00	1035.30
69.00	1047.00
70.00	1054.80
71.00	1100.05
72.00	1099.27
73.00	1105.51
74.00	1100.83
75.00	1142.18
76.00	1142.96
77.00	1146.08
78.00	1139.06
79.00	1169.49
80.00	1172.61
81.00	1176.51
82.00	1160.91
83.00	1152.32
84.00	1126.58
85.00	1162.47
86.00	1151.54
87.00	1184.31
88.00	1199.13
89.00	1235.80
90.00	1268.57
91.00	1241.26
92.00	1238.14
93.00	1211.62
94.00	1236.58
95.00	1246.73
96.00	1249.85
97.00	1239.70
98.00	1238.14
99.00	1274.03
100.00	1302.90
101.00	1314.60
102.00	1281.05
103.00	1265.45
104.00	1247.51
105.00	1270.91
106.00	1277.93
107.00	1323.18
108.00	1305.24
109.00	1343.47
110.00	1321.62
111.00	1369.99
112.00	1355.95
113.00	1371.55
114.00	1364.53
115.00	1373.89
116.00	1395.74
117.00	1387.16
118.00	1398.86
119.00	1395.74
120.00	1415.24
121.00	1417.58
122.00	1455.81
123.00	1441.77
124.00	1436.31
125.00	1417.58
126.00	1440.21
127.00	1452.69
128.00	1495.60
129.00	1495.60
130.00	1504.18
131.00	1473.76
132.00	1490.14
133.00	1498.72
134.00	1482.34
135.00	1493.26
136.00	1530.71
137.00	1567.38
138.00	1565.04
139.00	1587.66
140.00	1614.19
141.00	1650.08
142.00	1636.81
143.00	1629.01
144.00	1607.17
145.00	1593.90
146.00	1573.62
147.00	1575.96
148.00	1586.88
149.00	1614.97
150.00	1639.94
151.00	1653.98
152.00	1740.58
153.00	1775.69
154.00	1804.55
155.00	1772.57
156.00	1760.08
157.00	1747.60
158.00	1718.73
159.00	1706.25
160.00	1703.91
161.00	1693.77
162.00	1739.02
163.00	1767.10
164.00	1819.38
165.00	1839.66
166.00	1869.31
167.00	1881.01
168.00	1890.37
169.00	1922.36
170.00	1947.33
171.00	1931.72
172.00	1899.73
173.00	1922.36
174.00	1957.47
175.00	1985.55
176.00	2019.10
177.00	2027.68
178.00	2027.68
179.00	1977.75
180.00	1975.41
181.00	2011.30
182.00	2051.87
183.00	2091.66
184.00	2048.75
185.00	2066.69
186.00	2068.25
187.00	2102.58
188.00	2137.69
189.00	2113.50
190.00	2140.81
191.00	2104.14
192.00	2120.53
193.00	2111.16
194.00	2147.83
195.00	2218.83
196.00	2265.64
197.00	2253.94
198.00	2254.72
199.00	2249.25
200.00	2248.47
201.00	2299.19
202.00	2335.07
203.00	2377.20
204.00	2349.90
205.00	2369.40
206.00	2377.20
207.00	2388.91
208.00	2349.90
209.00	2353.02
210.00	2385.79
211.00	2409.97
212.00	2480.97
213.00	2455.22
214.00	2489.55
215.00	2442.74
216.00	2490.33
217.00	2505.15
218.00	2534.02
219.00	2462.24
220.00	2446.64
221.00	2420.89
222.00	2475.51
223.00	2509.83
224.00	2557.43
225.00	2572.25
226.00	2627.64
227.00	2637.00
228.00	2664.31
229.00	2632.32
230.00	2647.15
231.00	2695.52
232.00	2715.80
233.00	2745.45
234.00	2683.03
235.00	2704.88
236.00	2750.91
237.00	2827.37
238.00	2874.18
239.00	2864.82
240.00	2874.96
241.00	2873.40
242.00	2917.09
243.00	2916.31
244.00	2913.19
245.00	2879.64
246.00	2934.25
247.00	2984.96
248.00	3011.49
249.00	3033.33
250.00	3030.21
251.00	3082.49
252.00	3064.54
253.00	3102.77
254.00	3131.64
255.00	3230.72
256.00	3254.12
257.00	3258.81
258.00	3247.88
259.00	3253.34
260.00	3249.44
261.00	3251.78
262.00	3262.71
263.00	3286.11
264.00	3285.33
265.00	3318.88
266.00	3350.09
267.00	3410.16
268.00	3442.93
269.00	3462.43
270.00	3450.73
271.00	3471.79
272.00	3489.74
273.00	3526.41
274.00	3528.75
275.00	3576.34
276.00	3577.12
277.00	3633.29
278.00	3620.03
279.00	3643.43
280.00	3668.40
281.00	3715.21
282.00	3774.50
283.00	3731.59
284.00	3773.72
285.00	3751.10
286.00	3756.56
287.00	3723.79
288.00	3760.46
289.00	3797.13
290.00	3808.05
291.00	3781.53
292.00	3837.70
293.00	3895.43
294.00	3982.81
295.00	4009.34
296.00	4015.58
297.00	4031.18
298.00	4012.46
299.00	4009.34
300.00	3988.27
301.00	3962.53
302.00	3994.51
303.00	4056.93
304.00	4131.05
305.00	4117.78
306.00	4056.15
307.00	4012.46
308.00	4032.74
309.00	4109.20
310.00	4149.77
311.00	4181.76
312.00	4137.29
313.00	4163.81
314.00	4160.69
315.00	4173.96
316.00	4192.68
317.00	4241.83
318.00	4288.64
319.00	4280.06
320.00	4271.48
321.00	4273.04
322.00	4329.99
323.00	4369.00
324.00	4414.25
325.00	4441.56
326.00	4475.88
327.00	4530.50
328.00	4529.72
329.00	4578.09
330.00	4606.17
331.00	4629.58
332.00	4611.64
333.00	4567.17
334.00	4583.55
335.00	4636.60
336.00	4653.77
337.00	4665.47
338.00	4688.09
339.00	4790.30
340.00	4872.22
341.00	4908.10
342.00	4866.75
343.00	4849.59
344.00	4840.23
345.00	4834.77
346.00	4893.28
347.00	4931.51
348.00	5020.45
349.00	5028.25
350.00	5025.91
351.00	5050.10
352.00	5050.10
353.00	5054.00
354.00	5102.37
355.00	5132.79
356.00	5182.73
357.00	5167.90
358.00	5213.15
359.00	5231.10
360.00	5220.17
361.00	5249.82
362.00	5293.51
363.00	5345.78
364.00	5351.24
365.00	5315.36
366.00	5380.89
367.00	5415.22
368.00	5500.26
369.00	5469.83
370.00	5536.93
371.00	5483.10
372.00	5546.29
373.00	5536.15
374.00	5600.90
375.00	5613.38
376.00	5627.43
377.00	5668.00
378.00	5680.48
379.00	5720.27
380.00	5730.41
381.00	5780.34
382.00	5832.62
383.00	5916.87
384.00	5953.54
385.00	5966.03
386.00	6018.30
387.00	6047.16
388.00	6058.09
389.00	6079.15
390.00	6175.89
391.00	6261.71
392.00	6315.55
393.00	6366.26
394.00	6446.62
395.00	6448.18
396.00	6452.08
397.00	6504.35
398.00	6604.21
399.00	6690.03
400.00	6621.38
401.00	6695.49
402.00	6640.10
403.00	6771.95
404.00	6745.42
405.00	6832.80
406.00	6882.74
407.00	6888.20
408.00	6807.84
409.00	6772.73
410.00	6794.58
411.00	6908.48
412.00	6927.99
413.00	6977.92
414.00	6959.97
415.00	6928.77
416.00	6922.52
417.00	7003.66
418.00	7094.94
419.00	7112.89
420.00	7112.11
421.00	7136.29
422.00	7133.17
423.00	7093.38
424.00	7059.06
425.00	7136.29
426.00	7168.28
427.00	7166.72
428.00	7183.88
429.00	7219.77
430.00	7295.45
431.00	7318.08
432.00	7324.32
433.00	7318.86
434.00	7335.24
435.00	7385.95
436.00	7395.31
437.00	7411.70
438.00	7441.34
439.00	7535.74
440.00	7623.90
441.00	7676.96
442.00	7698.80
443.00	7715.97
444.00	7779.94
445.00	7775.26
446.00	7859.52
447.00	7854.06
448.00	7885.26
449.00	7769.80
450.00	7852.50
451.00	7910.23
452.00	8031.94
453.00	8005.41
454.00	7987.47
455.00	8013.21
456.00	8088.89
457.00	8162.23
458.00	8114.64
459.00	8060.02
460.00	8051.44
461.00	8116.98
462.00	8183.29
463.00	8243.37
464.00	8308.12
465.00	8347.13
466.00	8322.95
467.00	8351.03
468.00	8402.52
469.00	8522.67
470.00	8578.06
471.00	8590.55
472.00	8626.43
473.00	8635.80
474.00	8773.11
475.00	8850.35
476.00	8942.41
477.00	8960.35
478.00	9007.94
479.00	9042.27
480.00	8991.56
481.00	9092.20
482.00	9128.09
483.00	9175.68
484.00	9169.44
485.00	9185.82
486.00	9316.11
487.00	9337.18
488.00	9405.83
489.00	9387.11
490.00	9372.29
491.00	9419.88
492.00	9493.99
493.00	9524.42
494.00	9506.48
495.00	9471.37
496.00	9533.00
497.00	9556.41
498.00	9721.02
499.00	9731.17
500.00	9762.37
501.00	9773.30
502.00	9841.95
503.00	9947.28
504.00	10001.89
505.00	10151.68
506.00	10151.68
507.00	10141.54
508.00	10118.92
509.00	10187.57
510.00	10275.73
511.00	10325.66
512.00	10421.63
513.00	10439.57
514.00	10477.02
515.00	10516.03
516.00	10596.39
517.00	10622.91
518.00	10568.30
519.00	10499.64
520.00	10588.58
521.00	10681.42
522.00	10725.90
523.00	10749.30
524.00	10799.23
525.00	10873.35
526.00	10772.71
527.00	10855.40
528.00	10871.01
529.00	10991.16
530.00	10989.60
531.00	11046.55
532.00	11064.49
533.00	11112.08
534.00	11141.73
535.00	11210.39
536.00	11130.81
537.00	11118.32
538.00	11094.92
539.00	11129.25
540.00	11202.58
541.00	11222.09
542.00	11324.29
543.00	11370.32
544.00	11434.30
545.00	11506.85
546.00	11498.27
547.00	11619.98
548.00	11639.48
549.00	11795.52
550.00	11828.29
551.00	11873.54
552.00	11866.52
553.00	11893.82
554.00	11893.82
555.00	11935.17
556.00	12009.29
557.00	12135.68
558.00	12269.87
559.00	12319.02
560.00	12475.84
561.00	12556.19
562.00	12602.22
563.00	12596.76
564.00	12554.63
565.00	12663.86
566.00	12830.82
567.00	12905.71
568.00	12961.89
569.00	12835.50
570.00	12955.65
571.00	13118.70
572.00	13260.70
573.00	13340.27
574.00	13304.39
575.00	13459.64
576.00	13625.04
577.00	13772.49
578.00	13968.32
579.00	13914.48
580.00	14045.55
581.00	14015.13
582.00	14195.35
583.00	14273.37
584.00	14420.04
585.00	14576.86
586.00	14714.17
587.00	14643.95
588.00	14638.49
589.00	14717.29
590.00	14840.56
591.00	14861.62
592.00	14972.41
593.00	15142.49
594.00	15384.34
595.00	15453.00
596.00	15644.14
597.00	15724.50
598.00	15981.18
599.00	16103.67
600.00	16347.86
601.00	16328.36
602.00	16452.41
603.00	16391.55
604.00	16507.02
605.00	16824.55
606.00	16972.78
607.00	17203.72
608.00	17082.79
609.00	17248.19
610.00	17252.87
611.00	17314.50
612.00	17512.67
613.00	17645.30
614.00	17852.05
615.00	18009.64
616.00	18139.93
617.00	18343.56
618.00	18556.55
619.00	18845.99
620.00	19047.28
621.00	19109.69
622.00	19275.87
623.00	19473.26
624.00	19540.35
625.00	19539.57
626.00	19585.60
627.00	19773.63
628.00	19967.89
629.00	20160.59
630.00	20462.52
631.00	20638.06
632.00	20719.98
633.00	20947.79
634.00	21194.33
635.00	21369.09
636.00	21392.50
637.00	21685.06
638.00	21884.79
639.00	22036.14
640.00	22010.40
641.00	22115.72
642.00	22301.40
643.00	22565.10
644.00	22800.72
645.00	22862.35
646.00	22912.28
647.00	23000.44
648.00	23199.39
649.00	23491.96
650.00	23809.49
651.00	24132.48
652.00	24150.43
653.00	24167.59
654.00	24216.74
655.00	24459.38
656.00	24765.99
657.00	24974.30
658.00	25072.60
659.00	25165.44
660.00	25357.36
661.00	25656.17
662.00	25980.73
663.00	26156.27
664.00	26304.50
665.00	26169.53
666.00	26296.70
667.00	26389.54
668.00	26733.60
669.00	26949.71
670.00	27032.41
671.00	27178.30
672.00	27272.70
673.00	27516.90
674.00	27658.89
675.00	27871.88
676.00	27910.89
677.00	28100.47
678.00	28289.27
679.00	28617.73
680.00	28741.78
681.00	28939.16
682.00	29044.49
683.00	29291.80
684.00	29514.16
685.00	29775.52
686.00	29837.93
687.00	29870.70
688.00	30033.75
689.00	30449.59
690.00	30781.95
691.00	30950.46
692.00	30886.49
693.00	30948.90
694.00	31161.11
695.00	31463.82
696.00	31640.14
697.00	31796.96
698.00	31994.34
699.00	32023.99
700.00	32148.04
701.00	32265.85
702.00	32540.47
703.00	32691.04
704.00	32892.33
705.00	33139.65
706.00	33362.00
707.00	33514.13
708.00	33672.51
709.00	33855.07
710.00	34021.25
711.00	34125.01
712.00	34259.20
713.00	34339.56
714.00	34394.17
715.00	34464.39
716.00	34660.99
717.00	35065.13
718.00	35150.17
719.00	35129.88
720.00	35138.46
721.00	35254.71
722.00	35664.30
723.00	35806.30
724.00	36079.36
725.00	36156.60
726.00	36070.00
727.00	36336.04
728.00	36335.26
729.00	36543.56
730.00	36444.48
731.00	36559.95
732.00	36705.06
733.00	36700.38
734.00	36579.45
735.00	36575.55
736.00	36766.70
737.00	37070.97
738.00	37343.25
739.00	37518.01
740.00	37723.97
741.00	37940.08
742.00	38036.05
743.00	37985.33
744.00	38083.64
745.00	38250.60
746.00	38576.71
747.00	38830.27
748.00	39090.07
749.00	39215.68
750.00	39306.96
751.00	39401.36
752.00	39679.88
753.00	39761.80
754.00	39931.10
755.00	39932.66
756.00	40165.93
757.00	40262.68
758.00	40321.97
759.00	40340.69
760.00	40481.13
761.00	40583.33
762.00	40588.79
763.00	40699.58
764.00	40793.98
765.00	41019.45
766.00	41106.83
767.00	41397.06
768.00	41534.37
769.00	41800.41
770.00	41911.19
771.00	42053.97
772.00	42288.80
773.00	42601.65
774.00	42647.68
775.00	42497.89
776.00	42387.10
777.00	42620.38
778.00	42724.14
779.00	43063.52
780.00	43080.68
781.00	43329.56
782.00	43261.68
783.00	43540.99
784.00	43560.49
785.00	43735.25
786.00	43981.01
787.00	44432.73
788.00	44655.08
789.00	44704.23
790.00	44709.69
791.00	44769.77
792.00	44931.26
793.00	44953.11
794.00	45184.04
795.00	45205.89
796.00	45435.26
797.00	45542.14
798.00	45591.30
799.00	45597.54
800.00	45591.30
801.00	45762.93
802.00	45979.82
803.00	46084.37
804.00	46269.27
805.00	46477.58
806.00	46656.24
807.00	46808.37
808.00	46760.78
809.00	46812.27
810.00	46990.94
811.00	47269.46
812.00	47466.06
813.00	47466.06
814.00	47484.79
815.00	47731.32
816.00	47833.53
817.00	47796.08
818.00	47674.37
819.00	47796.86
820.00	48009.07
821.00	48326.60
822.00	48359.37
823.00	48480.30
824.00	48518.53
825.00	48621.51
826.00	48754.92
827.00	49010.04
828.00	49208.20
829.00	49174.66
830.00	49011.60
831.00	49006.92
832.00	49084.15
833.00	48925.00
834.00	49081.03
835.00	49260.48
836.00	49667.73
837.00	49865.89
838.00	49915.04
839.00	49955.61
840.00	49960.30
841.00	50173.28
842.00	50434.64
843.00	50586.00
844.00	50814.59
845.00	50960.48
846.00	51086.87
847.00	51036.94
848.00	51029.92
849.00	51090.77
850.00	51107.16
851.00	51100.14
852.00	51012.76
853.00	51135.24
854.00	51275.68
855.00	51374.76
856.00	51507.39
857.00	51546.40
858.00	51723.50
859.00	51735.20
860.00	51803.86
861.00	51774.99
862.00	51866.27
863.00	51804.64
864.00	51862.37
865.00	51780.45
866.00	51970.82
867.00	52048.83
868.00	52221.25
869.00	52241.54
870.00	52411.62
871.00	52696.38
872.00	52896.11
873.00	52942.14
874.00	52912.49
875.00	52861.78
876.00	52998.31
877.00	53041.22
878.00	53115.34
879.00	53205.06
880.00	53286.98
881.00	53396.20
882.00	53305.70
883.00	53350.17
884.00	53354.85
885.00	53322.08
886.00	53301.80
887.00	53387.62
888.00	53531.17
889.00	53524.93
890.00	53623.23
891.00	53777.71
892.00	53902.54
893.00	53881.47
894.00	53831.54
895.00	53875.23
896.00	54000.06
897.00	53935.30
898.00	54024.25
899.00	54076.52
900.00	54341.78
901.00	54383.91
902.00	54362.06
903.00	54359.72
904.00	54524.34
905.00	54795.84
906.00	54858.26
907.00	54834.07
908.00	54658.53
909.00	54905.07
910.00	54869.96
911.00	54939.39
912.00	54729.53
913.00	54815.35
914.00	54910.53
915.00	55004.93
916.00	54981.52
917.00	55063.44
918.00	55109.47
919.00	55141.46
920.00	55047.84
921.00	55022.09
922.00	55094.65
923.00	55171.89
924.00	55128.20
925.00	55252.25
926.00	55398.92
927.00	55644.68
928.00	55718.79
929.00	55763.26
930.00	55746.10
931.00	55647.02
932.00	55655.60
933.00	55793.69
934.00	55871.71
935.00	55930.22
936.00	55941.92
937.00	56076.12
938.00	56029.30
939.00	55948.17
940.00	55923.20
941.00	55954.41
942.00	56044.13
943.00	56172.86
944.00	56335.13
945.00	56482.59
946.00	56475.57
947.00	56466.20
948.00	56548.90
949.00	56599.61
950.00	56714.30
951.00	56738.49
952.00	56653.45
953.00	56585.57
954.00	56524.72
955.00	56724.44
956.00	56792.32
957.00	56874.24
958.00	56970.20
959.00	57194.11
960.00	57239.36
961.00	57159.78
962.00	57166.02
963.00	57272.13
964.00	57446.11
965.00	57427.38
966.00	57517.10
967.00	57611.51
968.00	57675.48
969.00	57616.97
970.00	57643.49
971.00	57811.23
972.00	57945.42
973.00	57895.49
974.00	57817.47
975.00	57854.92
976.00	57885.35
977.00	57860.38
978.00	57823.72
979.00	57937.62
980.00	57970.39
981.00	58149.05
982.00	58129.55
983.00	58133.45
984.00	58141.25
985.00	58143.59
986.00	58252.81
987.00	58112.38
988.00	58232.53
989.00	58177.92
990.00	58344.87
991.00	58308.21
992.00	58440.06
993.00	58376.08
994.00	58482.97
995.00	58565.66
996.00	58774.75
997.00	59011.15
998.00	59133.63
999.00	59206.19
1000.00	59211.65
1001.00	59215.55
1002.00	59106.33
1003.00	58795.04
1004.00	58830.93
1005.00	58896.46
1006.00	59122.71
1007.00	59115.69
1008.00	59170.30
1009.00	59045.47
1010.00	59036.11
1011.00	58976.04
1012.00	59108.67
1013.00	59185.91
1014.00	59281.87
1015.00	59405.14
1016.00	59413.72
1017.00	59495.64
1018.00	59560.39
1019.00	59643.09
1020.00	59682.10
1021.00	59666.50
1022.00	59648.55
1023.00	59638.41
1024.00	59685.22
1025.00	59767.92
1026.00	59934.88
1027.00	59970.77
1028.00	60030.84
1029.00	59887.29
1030.00	59865.44
1031.00	59934.88
1032.00	60040.20
1033.00	60204.04
1034.00	60243.83
1035.00	60294.54
1036.00	60303.90
1037.00	60358.52
1038.00	60424.05
1039.00	60385.82
1040.00	60253.97
1041.00	60246.95
1042.00	60285.96
1043.00	60500.51
1044.00	60648.74
1045.00	60732.22
1046.00	60687.75
1047.00	60591.01
1048.00	60672.93
1049.00	60682.29
1050.00	60724.42
1051.00	60674.49
1052.00	60702.57
1053.00	60739.24
1054.00	60747.04
1055.00	60646.40
1056.00	60627.68
1057.00	60620.66
1058.00	60728.32
1059.00	60718.18
1060.00	60865.63
1061.00	60942.87
1062.00	61161.32
1063.00	61065.36
1064.00	61026.35
1065.00	60894.50
1066.00	60960.81
1067.00	61066.92
1068.00	61141.81
1069.00	61226.85
1070.00	61212.03
1071.00	61268.98
1072.00	61271.32
1073.00	61350.12
1074.00	61452.33
1075.00	61492.11
1076.00	61548.29
1077.00	61481.19
1078.00	61552.97
1079.00	61581.84
1080.00	61672.34
1081.00	61760.50
1082.00	61784.68
1083.00	61776.88
1084.00	61737.09
1085.00	61769.86
1086.00	61794.04
1087.00	61771.42
1088.00	61783.90
1089.00	61878.30
1090.00	61899.37
1091.00	61937.60
1092.00	61977.39
1093.00	62021.08
1094.00	62090.51
1095.00	61999.23
1096.00	62000.79
1097.00	61989.87
1098.00	62024.98
1099.00	62077.25
1100.00	62027.32
1101.00	62041.36
1102.00	62086.61
1103.00	62136.54
1104.00	62193.50
1105.00	62217.68
1106.00	62153.71
1107.00	62209.88
1108.00	62187.25
1109.00	62340.95
1110.00	62456.42
1111.00	62511.03
1112.00	62447.83
1113.00	62314.42
1114.00	62302.72
1115.00	62341.73
1116.00	62345.63
1117.00	62282.44
1118.00	62234.06
1119.00	62273.85
1120.00	62387.76
1121.00	62493.86
1122.00	62495.42
1123.00	62458.76
1124.00	62429.11
1125.00	62376.06
1126.00	62351.09
1127.00	62425.21
1128.00	62500.11
1129.00	62514.15
1130.00	62450.17
1131.00	62389.32
1132.00	62438.47
1133.00	62390.88
1134.00	62375.28
1135.00	62366.69
1136.00	62466.56
1137.00	62581.24
1138.00	62622.59
1139.00	62675.65
1140.00	62726.36
1141.00	62775.51
1142.00	62787.21
1143.00	62768.49
1144.00	62757.56
1145.00	62803.59
1146.00	62891.76
1147.00	62887.07
1148.00	62904.24
1149.00	62947.15
1150.00	62955.73
1151.00	62966.65
1152.00	62887.07
1153.00	62887.85
1154.00	62766.15
1155.00	62684.23
1156.00	62687.35
1157.00	62773.17
1158.00	62805.16
1159.00	62839.48
1160.00	62866.79
1161.00	62959.63
1162.00	62955.73
1163.00	62868.35
1164.00	62844.16
1165.00	62941.69
1166.00	62991.62
1167.00	63004.10
1168.00	63013.46
1169.00	63099.28
1170.00	63032.19
1171.00	63035.31
1172.00	62968.99
1173.00	62989.28
1174.00	62963.53
1175.00	63008.00
1176.00	63068.86
1177.00	63057.15
1178.00	63052.47
1179.00	63093.04
1180.00	63149.21
1181.00	63161.70
1182.00	63199.15
1183.00	63177.30
1184.00	63165.60
1185.00	63141.41
1186.00	63086.80
1187.00	63178.08
1188.00	63238.15
1189.00	63187.44
1190.00	63059.49
1191.00	62993.18
1192.00	62993.96
1193.00	62979.14
1194.00	62926.08
1195.00	63067.30
1196.00	63159.36
1197.00	63209.29
1198.00	63103.96
1199.00	63133.61
1200.00	63202.27
1201.00	63313.83
1202.00	63329.44
1203.00	63252.20
1204.00	63164.04
1205.00	63198.37
1206.00	63245.96
1207.00	63323.19
1208.00	63291.21
1209.00	63274.82
1210.00	63313.83
1211.00	63323.19
1212.00	63416.04
1213.00	63393.41
1214.00	63348.94
1215.00	63238.93
1216.00	63186.66
1217.00	63208.51
1218.00	63252.98
1219.00	63267.02
1220.00	63264.68
1221.00	63258.44
1222.00	63325.53
1223.00	63324.75
1224.00	63364.54
1225.00	63399.65
1226.00	63501.07
1227.00	63512.78
1228.00	63353.62
1229.00	63210.07
1230.00	63173.40
1231.00	63322.41
1232.00	63383.27
1233.00	63414.47
1234.00	63320.85
1235.00	63355.18
1236.00	63433.20
1237.00	63518.24
