SpectraSuite Data File
++++++++++++++++++++++++++++++++++++
Date: Thu Nov 16 14:14:15 EST 2017
User: cheriyan
Dark Spectrum Present: No
Reference Spectrum Present: No
Number of Sampled Component Spectra: 1
Spectrometers: USB2+H05261
Integration Time (usec): 100000 (USB2+H05261)
Spectra Averaged: 1 (USB2+H05261)
Boxcar Smoothing: 1 (USB2+H05261)
Correct for Electrical Dark: No (USB2+H05261)
Strobe/Lamp Enabled: No (USB2+H05261)
Correct for Detector Non-linearity: No (USB2+H05261)
Correct for Stray Light: No (USB2+H05261)
Number of Pixels in Processed Spectrum: 2048
>>>>>Begin Processed Spectral Data<<<<<
0.00	294.91
1.00	294.91
2.00	274.62
3.00	249.66
4.00	243.42
5.00	236.39
6.00	239.51
7.00	227.03
8.00	232.49
9.00	222.35
10.00	230.15
11.00	230.15
12.00	241.08
13.00	227.03
14.00	219.23
15.00	224.69
16.00	237.95
17.00	262.92
18.00	263.70
19.00	252.00
20.00	257.46
21.00	287.11
22.00	289.45
23.00	306.61
24.00	401.79
25.00	519.60
26.00	614.78
27.00	635.85
28.00	652.23
29.00	664.71
30.00	656.13
31.00	645.99
32.00	656.91
33.00	648.33
34.00	671.73
35.00	653.79
36.00	685.00
37.00	688.12
38.00	709.18
39.00	704.50
40.00	720.89
41.00	738.83
42.00	724.79
43.00	713.08
44.00	713.86
45.00	723.23
46.00	765.36
47.00	741.95
48.00	756.77
49.00	741.17
50.00	767.70
51.00	790.32
52.00	809.83
53.00	803.58
54.00	755.99
55.00	706.06
56.00	720.88
57.00	753.65
58.00	798.12
59.00	804.36
60.00	802.80
61.00	798.12
62.00	775.50
63.00	780.18
64.00	775.50
65.00	798.12
66.00	795.78
67.00	812.17
68.00	812.95
69.00	831.67
70.00	823.87
71.00	795.78
72.00	787.98
73.00	784.86
74.00	818.41
75.00	830.11
76.00	818.41
77.00	806.70
78.00	787.98
79.00	812.95
80.00	814.51
81.00	837.13
82.00	838.69
83.00	844.15
84.00	841.81
85.00	850.39
86.00	839.47
87.00	819.97
88.00	822.31
89.00	841.03
90.00	879.26
91.00	879.26
92.00	905.79
93.00	872.24
94.00	882.38
95.00	862.88
96.00	902.67
97.00	885.50
98.00	908.13
99.00	940.12
100.00	960.40
101.00	948.70
102.00	932.31
103.00	925.29
104.00	908.13
105.00	917.49
106.00	911.25
107.00	924.51
108.00	919.83
109.00	927.63
110.00	940.12
111.00	952.60
112.00	982.24
113.00	989.27
114.00	978.34
115.00	966.64
116.00	990.83
117.00	1015.01
118.00	1036.86
119.00	1063.38
120.00	1046.22
121.00	1026.72
122.00	1023.59
123.00	1044.66
124.00	1054.02
125.00	1053.24
126.00	1031.40
127.00	1022.81
128.00	1024.37
129.00	1063.38
130.00	1083.67
131.00	1092.25
132.00	1086.01
133.00	1080.55
134.00	1057.14
135.00	1082.89
136.00	1122.68
137.00	1135.94
138.00	1118.78
139.00	1126.58
140.00	1152.32
141.00	1142.18
142.00	1125.80
143.00	1078.21
144.00	1105.51
145.00	1104.73
146.00	1167.15
147.00	1143.74
148.00	1164.03
149.00	1165.59
150.00	1171.83
151.00	1196.79
152.00	1191.33
153.00	1233.46
154.00	1225.66
155.00	1266.23
156.00	1246.73
157.00	1245.16
158.00	1217.08
159.00	1227.22
160.00	1235.02
161.00	1227.22
162.00	1248.29
163.00	1261.55
164.00	1289.64
165.00	1284.17
166.00	1299.78
167.00	1300.56
168.00	1307.58
169.00	1313.82
170.00	1332.54
171.00	1342.69
172.00	1356.73
173.00	1367.65
174.00	1358.29
175.00	1315.38
176.00	1322.40
177.00	1330.20
178.00	1370.77
179.00	1341.91
180.00	1349.71
181.00	1335.67
182.00	1355.17
183.00	1384.82
184.00	1411.34
185.00	1391.84
186.00	1410.56
187.00	1449.57
188.00	1487.02
189.00	1476.10
190.00	1444.89
191.00	1456.59
192.00	1443.33
193.00	1469.86
194.00	1501.06
195.00	1551.78
196.00	1568.94
197.00	1565.82
198.00	1556.46
199.00	1524.47
200.00	1509.65
201.00	1504.96
202.00	1525.25
203.00	1535.39
204.00	1547.09
205.00	1575.18
206.00	1585.32
207.00	1568.16
208.00	1526.81
209.00	1575.96
210.00	1597.81
211.00	1624.33
212.00	1585.32
213.00	1576.74
214.00	1629.79
215.00	1629.01
216.00	1679.72
217.00	1636.03
218.00	1683.63
219.00	1681.28
220.00	1753.06
221.00	1735.90
222.00	1720.29
223.00	1672.70
224.00	1658.66
225.00	1689.87
226.00	1696.89
227.00	1748.38
228.00	1757.74
229.00	1768.66
230.00	1750.72
231.00	1747.60
232.00	1774.91
233.00	1785.83
234.00	1813.14
235.00	1824.84
236.00	1841.22
237.00	1845.12
238.00	1871.65
239.00	1921.58
240.00	1956.69
241.00	1962.15
242.00	1944.99
243.00	1911.44
244.00	1919.24
245.00	1928.60
246.00	1946.55
247.00	1944.99
248.00	1969.17
249.00	1973.85
250.00	1987.89
251.00	1983.21
252.00	1978.53
253.00	2016.76
254.00	2025.34
255.00	2118.18
256.00	2134.57
257.00	2139.25
258.00	2126.77
259.00	2111.16
260.00	2110.38
261.00	2108.82
262.00	2143.15
263.00	2196.20
264.00	2193.08
265.00	2182.16
266.00	2175.14
267.00	2208.69
268.00	2219.61
269.00	2218.05
270.00	2245.35
271.00	2253.94
272.00	2339.76
273.00	2334.29
274.00	2363.16
275.00	2339.76
276.00	2362.38
277.00	2387.35
278.00	2392.81
279.00	2396.71
280.00	2397.49
281.00	2386.57
282.00	2427.14
283.00	2438.06
284.00	2456.78
285.00	2438.06
286.00	2417.77
287.00	2417.77
288.00	2458.34
289.00	2486.43
290.00	2536.36
291.00	2531.68
292.00	2537.14
293.00	2534.02
294.00	2580.83
295.00	2651.05
296.00	2661.19
297.00	2612.04
298.00	2593.31
299.00	2599.56
300.00	2599.56
301.00	2555.87
302.00	2536.36
303.00	2572.25
304.00	2619.06
305.00	2646.37
306.00	2633.10
307.00	2643.25
308.00	2644.81
309.00	2678.35
310.00	2693.18
311.00	2722.04
312.00	2673.67
313.00	2665.87
314.00	2660.41
315.00	2744.67
316.00	2774.32
317.00	2757.15
318.00	2754.03
319.00	2726.72
320.00	2789.14
321.00	2805.52
322.00	2820.35
323.00	2791.48
324.00	2794.60
325.00	2846.09
326.00	2875.74
327.00	2887.44
328.00	2878.08
329.00	2910.85
330.00	2938.15
331.00	2917.87
332.00	2887.44
333.00	2849.21
334.00	2901.48
335.00	2950.64
336.00	3001.35
337.00	3030.99
338.00	3042.70
339.00	3057.52
340.00	3048.16
341.00	3101.99
342.00	3068.44
343.00	3123.84
344.00	3104.33
345.00	3151.14
346.00	3108.23
347.00	3125.40
348.00	3112.13
349.00	3127.74
350.00	3123.83
351.00	3201.85
352.00	3236.96
353.00	3322.78
354.00	3291.57
355.00	3263.49
356.00	3195.61
357.00	3237.74
358.00	3270.51
359.00	3318.10
360.00	3297.81
361.00	3361.79
362.00	3378.95
363.00	3400.80
364.00	3361.79
365.00	3327.46
366.00	3383.63
367.00	3435.91
368.00	3471.79
369.00	3428.88
370.00	3425.76
371.00	3419.52
372.00	3428.10
373.00	3445.27
374.00	3462.43
375.00	3531.87
376.00	3574.78
377.00	3651.24
378.00	3676.20
379.00	3668.40
380.00	3651.24
381.00	3639.53
382.00	3624.71
383.00	3634.85
384.00	3675.42
385.00	3744.08
386.00	3802.59
387.00	3818.97
388.00	3859.54
389.00	3914.16
390.00	3957.07
391.00	3939.12
392.00	3909.47
393.00	3907.91
394.00	3984.37
395.00	4052.25
396.00	4091.26
397.00	4139.63
398.00	4099.06
399.00	4165.37
400.00	4109.98
401.00	4213.74
402.00	4227.01
403.00	4305.03
404.00	4357.30
405.00	4352.62
406.00	4351.84
407.00	4262.90
408.00	4216.87
409.00	4234.81
410.00	4265.24
411.00	4315.17
412.00	4308.93
413.00	4340.91
414.00	4351.06
415.00	4371.34
416.00	4415.03
417.00	4457.94
418.00	4459.50
419.00	4417.37
420.00	4429.07
421.00	4482.13
422.00	4528.16
423.00	4540.64
424.00	4532.84
425.00	4548.44
426.00	4546.10
427.00	4538.30
428.00	4497.73
429.00	4507.87
430.00	4499.29
431.00	4507.09
432.00	4494.61
433.00	4500.07
434.00	4557.80
435.00	4583.55
436.00	4629.58
437.00	4643.62
438.00	4712.28
439.00	4764.55
440.00	4829.31
441.00	4828.53
442.00	4833.21
443.00	4825.40
444.00	4816.04
445.00	4815.26
446.00	4791.86
447.00	4828.53
448.00	4811.36
449.00	4798.88
450.00	4797.32
451.00	4858.95
452.00	4897.18
453.00	4895.62
454.00	4915.91
455.00	5002.50
456.00	5042.29
457.00	5070.38
458.00	5070.38
459.00	5103.93
460.00	5123.43
461.00	5105.49
462.00	5109.39
463.00	5141.38
464.00	5235.00
465.00	5301.31
466.00	5359.83
467.00	5313.80
468.00	5310.68
469.00	5258.40
470.00	5325.50
471.00	5368.41
472.00	5400.40
473.00	5431.60
474.00	5420.68
475.00	5505.72
476.00	5511.18
477.00	5569.69
478.00	5600.12
479.00	5658.64
480.00	5693.74
481.00	5692.18
482.00	5657.86
483.00	5624.31
484.00	5593.88
485.00	5616.51
486.00	5686.72
487.00	5701.55
488.00	5743.67
489.00	5794.39
490.00	5867.72
491.00	5921.56
492.00	5962.12
493.00	5997.23
494.00	5978.51
495.00	5945.74
496.00	5968.37
497.00	6028.44
498.00	6070.57
499.00	6067.45
500.00	6076.81
501.00	6076.81
502.00	6128.30
503.00	6129.08
504.00	6122.06
505.00	6134.54
506.00	6201.64
507.00	6268.73
508.00	6288.24
509.00	6299.16
510.00	6326.47
511.00	6386.54
512.00	6427.89
513.00	6471.58
514.00	6475.48
515.00	6494.99
516.00	6505.91
517.00	6540.24
518.00	6557.40
519.00	6541.80
520.00	6587.83
521.00	6607.33
522.00	6674.43
523.00	6692.37
524.00	6719.68
525.00	6728.26
526.00	6685.35
527.00	6673.65
528.00	6634.64
529.00	6649.46
530.00	6694.71
531.00	6800.82
532.00	6856.99
533.00	6873.37
534.00	6894.44
535.00	6977.14
536.00	6948.27
537.00	6903.80
538.00	6801.60
539.00	6864.79
540.00	6874.93
541.00	6917.84
542.00	6935.01
543.00	6960.75
544.00	7026.29
545.00	7114.45
546.00	7218.99
547.00	7276.73
548.00	7265.02
549.00	7297.01
550.00	7321.20
551.00	7401.55
552.00	7382.05
553.00	7373.47
554.00	7326.66
555.00	7392.97
556.00	7403.89
557.00	7517.80
558.00	7570.85
559.00	7640.29
560.00	7624.69
561.00	7633.27
562.00	7644.19
563.00	7690.22
564.00	7686.32
565.00	7902.43
566.00	8047.54
567.00	8138.04
568.00	8078.75
569.00	7974.21
570.00	8067.83
571.00	8172.37
572.00	8219.18
573.00	8226.20
574.00	8194.22
575.00	8226.98
576.00	8282.38
577.00	8366.64
578.00	8507.07
579.00	8506.29
580.00	8520.33
581.00	8520.33
582.00	8607.71
583.00	8688.07
584.00	8767.65
585.00	8830.06
586.00	8887.01
587.00	8884.67
588.00	8929.14
589.00	8965.81
590.00	9118.73
591.00	9141.35
592.00	9191.28
593.00	9248.24
594.00	9398.03
595.00	9523.64
596.00	9629.74
597.00	9716.34
598.00	9838.05
599.00	9942.60
600.00	10012.03
601.00	10021.39
602.00	10107.21
603.00	10182.11
604.00	10250.77
605.00	10326.44
606.00	10426.31
607.00	10461.41
608.00	10445.03
609.00	10517.59
610.00	10628.37
611.00	10629.93
612.00	10597.17
613.00	10689.23
614.00	10810.15
615.00	10892.85
616.00	10966.97
617.00	11072.29
618.00	11288.40
619.00	11352.38
620.00	11436.64
621.00	11509.19
622.00	11604.38
623.00	11750.27
624.00	11815.02
625.00	11863.40
626.00	11882.90
627.00	11988.22
628.00	12143.48
629.00	12336.18
630.00	12551.51
631.00	12719.25
632.00	12748.90
633.00	12755.14
634.00	12752.80
635.00	12791.03
636.00	12839.40
637.00	13027.42
638.00	13226.37
639.00	13308.29
640.00	13375.38
641.00	13388.64
642.00	13487.73
643.00	13574.33
644.00	13831.79
645.00	13940.23
646.00	13963.64
647.00	13893.42
648.00	14022.15
649.00	14242.16
650.00	14425.50
651.00	14586.22
652.00	14590.12
653.00	14630.69
654.00	14611.96
655.00	14701.68
656.00	14893.61
657.00	14968.51
658.00	15098.80
659.00	15163.55
660.00	15337.53
661.00	15449.88
662.00	15619.96
663.00	15573.92
664.00	15708.90
665.00	15656.62
666.00	15921.10
667.00	16027.99
668.00	16287.01
669.00	16392.33
670.00	16429.00
671.00	16359.56
672.00	16382.97
673.00	16468.01
674.00	16611.56
675.00	16641.99
676.00	16716.89
677.00	16827.67
678.00	17082.01
679.00	17298.12
680.00	17500.97
681.00	17599.27
682.00	17653.10
683.00	17696.79
684.00	17708.49
685.00	17783.39
686.00	17896.52
687.00	18145.39
688.00	18278.02
689.00	18307.67
690.00	18453.56
691.00	18562.79
692.00	18728.97
693.00	18773.44
694.00	18856.92
695.00	18927.13
696.00	18997.35
697.00	19012.17
698.00	19187.71
699.00	19239.20
700.00	19434.25
701.00	19459.99
702.00	19482.62
703.00	19598.87
704.00	19733.06
705.00	19903.14
706.00	19992.08
707.00	20127.05
708.00	20162.15
709.00	20262.02
710.00	20260.46
711.00	20467.20
712.00	20531.18
713.00	20801.12
714.00	20923.61
715.00	21016.45
716.00	21087.45
717.00	21178.73
718.00	21333.20
719.00	21346.47
720.00	21308.24
721.00	21249.72
722.00	21295.75
723.00	21408.10
724.00	21663.22
725.00	21760.74
726.00	21704.57
727.00	21850.46
728.00	21970.61
729.00	22225.73
730.00	22181.26
731.00	22193.74
732.00	22229.63
733.00	22170.33
734.00	22128.20
735.00	22132.89
736.00	22387.22
737.00	22624.40
738.00	22796.04
739.00	22807.74
740.00	22793.70
741.00	22946.61
742.00	23112.01
743.00	23269.61
744.00	23241.52
745.00	23278.97
746.00	23370.25
747.00	23568.41
748.00	23585.58
749.00	23686.22
750.00	23734.59
751.00	23681.54
752.00	23789.20
753.00	23687.00
754.00	23896.09
755.00	23803.25
756.00	23948.36
757.00	23965.53
758.00	24208.94
759.00	24319.73
760.00	24613.07
761.00	24665.35
762.00	24852.59
763.00	24891.60
764.00	25055.43
765.00	25176.36
766.00	25273.10
767.00	25351.90
768.00	25280.13
769.00	25217.71
770.00	25382.33
771.00	25572.69
772.00	25914.41
773.00	25944.06
774.00	26022.08
775.00	25932.36
776.00	25976.83
777.00	26086.05
778.00	26176.55
779.00	26137.54
780.00	26055.62
781.00	26159.39
782.00	26374.72
783.00	26700.05
784.00	26778.07
785.00	26758.56
786.00	26728.92
787.00	26856.09
788.00	27051.91
789.00	27287.53
790.00	27455.26
791.00	27501.29
792.00	27370.22
793.00	27344.48
794.00	27438.10
795.00	27576.97
796.00	27743.15
797.00	27843.79
798.00	28013.09
799.00	28027.14
800.00	28202.68
801.00	28279.13
802.00	28500.70
803.00	28485.88
804.00	28629.43
805.00	28535.03
806.00	28581.84
807.00	28488.22
808.00	28560.78
809.00	28672.34
810.00	28814.34
811.00	29038.25
812.00	29235.63
813.00	29368.26
814.00	29390.11
815.00	29482.95
816.00	29600.76
817.00	29840.27
818.00	29850.41
819.00	29833.25
820.00	29790.34
821.00	29901.12
822.00	30111.77
823.00	30095.39
824.00	30065.74
825.00	29997.09
826.00	29929.99
827.00	30080.57
828.00	30164.04
829.00	30515.12
830.00	30750.74
831.00	30838.90
832.00	30924.72
833.00	30709.39
834.00	30905.21
835.00	30973.87
836.00	31284.38
837.00	31331.19
838.00	31320.27
839.00	31256.29
840.00	31206.36
841.00	31341.33
842.00	31499.71
843.00	31723.62
844.00	31729.86
845.00	31770.43
846.00	31902.28
847.00	32078.60
848.00	32073.14
849.00	32113.71
850.00	32142.58
851.00	32296.27
852.00	32291.59
853.00	32316.56
854.00	32205.77
855.00	32233.08
856.00	32247.90
857.00	32384.43
858.00	32478.83
859.00	32620.83
860.00	32686.36
861.00	32666.86
862.00	32782.32
863.00	32961.76
864.00	33094.39
865.00	33032.76
866.00	33260.57
867.00	33567.96
868.00	33744.28
869.00	33819.18
870.00	33844.15
871.00	34110.19
872.00	34126.57
873.00	34174.94
874.00	34048.55
875.00	33983.80
876.00	33980.68
877.00	34171.82
878.00	34359.84
879.00	34398.07
880.00	34369.21
881.00	34162.46
882.00	34079.76
883.00	34096.14
884.00	34290.41
885.00	34327.08
886.00	34363.75
887.00	34374.67
888.00	34582.20
889.00	34751.49
890.00	34880.22
891.00	35012.07
892.00	35147.82
893.00	35027.68
894.00	35088.53
895.00	35043.28
896.00	35319.46
897.00	35335.07
898.00	35394.36
899.00	35512.17
900.00	35691.61
901.00	35833.60
902.00	36005.24
903.00	36151.91
904.00	36370.36
905.00	36531.86
906.00	36449.94
907.00	36292.35
908.00	36136.31
909.00	36368.02
910.00	36359.44
911.00	36234.61
912.00	35881.19
913.00	35759.48
914.00	35816.44
915.00	36100.42
916.00	36414.83
917.00	36613.00
918.00	36595.06
919.00	36492.85
920.00	36532.64
921.00	36595.84
922.00	36877.48
923.00	36960.96
924.00	37064.72
925.00	37047.56
926.00	37197.35
927.00	37267.57
928.00	37354.17
929.00	37449.35
930.00	37673.26
931.00	37808.23
932.00	37843.34
933.00	37921.36
934.00	37930.72
935.00	37752.06
936.00	37672.48
937.00	37718.51
938.00	37751.28
939.00	37860.51
940.00	37889.37
941.00	37968.95
942.00	37794.19
943.00	37925.26
944.00	38102.36
945.00	38284.92
946.00	38298.97
947.00	38263.08
948.00	38339.54
949.00	38247.47
950.00	38385.57
951.00	38355.92
952.00	38133.57
953.00	38065.69
954.00	38134.35
955.00	38412.09
956.00	38695.30
957.00	38936.37
958.00	39432.57
959.00	39587.04
960.00	39718.89
961.00	39501.22
962.00	39459.87
963.00	39431.01
964.00	39707.97
965.00	39910.03
966.00	40123.02
967.00	40194.02
968.00	40119.12
969.00	39988.05
970.00	39997.41
971.00	40167.49
972.00	40265.80
973.00	40152.67
974.00	40257.21
975.00	40343.81
976.00	40228.35
977.00	39963.09
978.00	39778.96
979.00	39793.01
980.00	39810.95
981.00	40211.18
982.00	40453.82
983.00	40695.67
984.00	40694.11
985.00	40844.69
986.00	40851.71
987.00	40720.64
988.00	40963.28
989.00	40927.39
990.00	41132.57
991.00	40766.67
992.00	40920.37
993.00	40846.25
994.00	41053.00
995.00	41248.04
996.00	41386.13
997.00	41671.68
998.00	41814.45
999.00	42126.52
1000.00	42157.73
1001.00	42238.87
1002.00	42039.92
1003.00	41842.54
1004.00	41936.16
1005.00	41780.12
1006.00	42035.24
1007.00	41965.81
1008.00	42498.67
1009.00	42521.29
1010.00	42621.16
1011.00	42257.59
1012.00	42205.32
1013.00	41945.52
1014.00	42181.91
1015.00	42284.12
1016.00	42639.10
1017.00	42923.08
1018.00	43241.40
1019.00	43358.42
1020.00	43147.78
1021.00	42893.44
1022.00	42759.25
1023.00	42653.92
1024.00	42830.24
1025.00	43015.93
1026.00	43370.91
1027.00	43573.75
1028.00	43663.47
1029.00	43650.21
1030.00	43610.42
1031.00	43654.11
1032.00	43782.84
1033.00	43927.17
1034.00	43897.53
1035.00	43995.05
1036.00	44034.84
1037.00	44051.22
1038.00	44029.38
1039.00	43964.62
1040.00	44093.35
1041.00	44311.02
1042.00	44508.41
1043.00	44704.23
1044.00	44735.44
1045.00	44812.68
1046.00	44627.77
1047.00	44361.73
1048.00	44160.45
1049.00	44246.27
1050.00	44593.45
1051.00	44929.70
1052.00	45095.88
1053.00	45120.07
1054.00	44999.14
1055.00	44953.11
1056.00	44903.18
1057.00	45056.87
1058.00	45424.34
1059.00	45476.61
1060.00	45535.12
1061.00	45272.98
1062.00	45246.46
1063.00	45162.98
1064.00	45103.68
1065.00	45293.27
1066.00	45486.75
1067.00	45724.71
1068.00	45751.23
1069.00	45513.28
1070.00	45443.84
1071.00	45365.82
1072.00	45588.17
1073.00	45725.49
1074.00	45972.02
1075.00	46046.92
1076.00	45963.44
1077.00	45975.14
1078.00	46122.60
1079.00	46150.68
1080.00	46075.79
1081.00	45867.48
1082.00	46046.92
1083.00	46050.82
1084.00	46102.31
1085.00	46120.26
1086.00	46263.81
1087.00	46510.35
1088.00	46666.38
1089.00	46962.07
1090.00	46983.13
1091.00	47050.23
1092.00	46950.37
1093.00	47014.34
1094.00	47052.57
1095.00	47303.01
1096.00	47411.45
1097.00	47453.58
1098.00	47256.98
1099.00	47288.18
1100.00	47256.98
1101.00	47203.14
1102.00	46966.75
1103.00	46986.25
1104.00	47122.79
1105.00	47364.64
1106.00	47312.37
1107.00	47250.74
1108.00	47370.88
1109.00	47544.86
1110.00	47735.23
1111.00	47642.38
1112.00	47542.52
1113.00	47243.71
1114.00	47232.79
1115.00	47200.80
1116.00	47427.84
1117.00	47548.76
1118.00	47778.92
1119.00	47861.61
1120.00	47785.16
1121.00	47682.95
1122.00	47530.04
1123.00	47418.47
1124.00	47430.18
1125.00	47459.82
1126.00	47654.09
1127.00	47701.68
1128.00	47744.59
1129.00	47821.83
1130.00	47813.24
1131.00	48009.85
1132.00	47995.81
1133.00	48006.73
1134.00	47874.10
1135.00	47854.59
1136.00	48114.39
1137.00	48228.30
1138.00	48244.68
1139.00	48257.95
1140.00	48305.54
1141.00	48303.98
1142.00	48403.84
1143.00	48417.10
1144.00	48601.22
1145.00	48370.29
1146.00	48374.97
1147.00	48122.19
1148.00	48114.39
1149.00	48084.75
1150.00	48192.41
1151.00	48344.55
1152.00	48480.30
1153.00	48676.90
1154.00	48604.34
1155.00	48464.69
1156.00	48265.75
1157.00	48171.35
1158.00	48150.28
1159.00	48194.75
1160.00	48502.14
1161.00	48819.67
1162.00	49079.47
1163.00	49049.05
1164.00	48990.53
1165.00	48986.63
1166.00	48872.73
1167.00	48726.05
1168.00	48624.63
1169.00	48664.42
1170.00	48664.42
1171.00	48720.59
1172.00	48695.63
1173.00	48806.41
1174.00	48820.45
1175.00	48822.79
1176.00	48800.17
1177.00	48676.12
1178.00	48575.48
1179.00	48514.62
1180.00	48641.79
1181.00	48934.36
1182.00	49102.88
1183.00	49201.96
1184.00	49219.91
1185.00	49257.35
1186.00	49284.66
1187.00	49316.65
1188.00	49340.05
1189.00	49410.27
1190.00	49428.21
1191.00	49461.76
1192.00	49269.06
1193.00	49180.12
1194.00	49126.28
1195.00	49173.10
1196.00	49076.35
1197.00	49003.02
1198.00	49027.98
1199.00	49110.68
1200.00	49041.24
1201.00	48976.49
1202.00	48993.65
1203.00	49237.07
1204.00	49434.45
1205.00	49562.40
1206.00	49503.89
1207.00	49490.63
1208.00	49401.69
1209.00	49266.72
1210.00	49095.86
1211.00	48995.21
1212.00	49160.61
1213.00	49292.46
1214.00	49182.46
1215.00	49173.88
1216.00	49083.37
1217.00	49351.76
1218.00	49342.39
1219.00	49426.65
1220.00	49396.23
1221.00	49338.49
1222.00	49336.15
1223.00	49312.75
1224.00	49288.56
1225.00	49230.83
1226.00	49316.65
1227.00	49432.11
1228.00	49460.20
1229.00	49521.83
1230.00	49575.67
1231.00	49812.06
1232.00	49809.72
1233.00	49895.54
1234.00	49864.33
1235.00	49885.40
1236.00	49918.95
1237.00	49957.95
1238.00	50041.43
1239.00	50078.10
1240.00	50231.02
1241.00	50280.17
1242.00	50195.13
1243.00	50197.47
1244.00	50253.64
1245.00	50387.83
1246.00	50455.71
1247.00	50481.45
