SpectraSuite Data File
++++++++++++++++++++++++++++++++++++
Date: Thu Nov 16 13:32:53 EST 2017
User: cheriyan
Dark Spectrum Present: No
Reference Spectrum Present: No
Number of Sampled Component Spectra: 1
Spectrometers: USB2+H05261
Integration Time (usec): 90000 (USB2+H05261)
Spectra Averaged: 1 (USB2+H05261)
Boxcar Smoothing: 1 (USB2+H05261)
Correct for Electrical Dark: No (USB2+H05261)
Strobe/Lamp Enabled: No (USB2+H05261)
Correct for Detector Non-linearity: No (USB2+H05261)
Correct for Stray Light: No (USB2+H05261)
Number of Pixels in Processed Spectrum: 2048
>>>>>Begin Processed Spectral Data<<<<<
0.00	367.46
1.00	367.46
2.00	366.68
3.00	330.80
4.00	293.35
5.00	260.58
6.00	234.05
7.00	234.83
8.00	238.73
9.00	255.12
10.00	259.02
11.00	268.38
12.00	276.96
13.00	282.42
14.00	280.08
15.00	310.51
16.00	303.49
17.00	306.61
18.00	280.08
19.00	298.03
20.00	282.42
21.00	284.77
22.00	294.13
23.00	773.94
24.00	2420.11
25.00	4171.61
26.00	5540.83
27.00	5685.16
28.00	5568.91
29.00	5369.97
30.00	5167.12
31.00	5089.10
32.00	5118.75
33.00	5175.70
34.00	5140.60
35.00	4995.48
36.00	4790.30
37.00	4709.16
38.00	4650.64
39.00	4734.90
40.00	4844.91
41.00	4908.88
42.00	4876.90
43.00	4833.21
44.00	4867.53
45.00	5091.45
46.00	5326.28
47.00	5569.69
48.00	5714.81
49.00	5775.66
50.00	5798.29
51.00	5727.29
52.00	5756.94
53.00	5800.63
54.00	5942.62
55.00	6117.38
56.00	6356.11
57.00	6668.19
58.00	6905.36
59.00	7108.21
60.00	7238.50
61.00	7338.36
62.00	7260.34
63.00	7017.71
64.00	6709.54
65.00	6410.73
66.00	6174.33
67.00	5988.65
68.00	5906.73
69.00	5922.34
70.00	6097.88
71.00	6377.96
72.00	6723.58
73.00	6929.55
74.00	7049.69
75.00	6914.72
76.00	6771.17
77.00	6466.90
78.00	6158.73
79.00	5795.17
80.00	5485.44
81.00	5258.40
82.00	5028.25
83.00	4876.90
84.00	4763.77
85.00	4646.74
86.00	4551.56
87.00	4486.81
88.00	4452.48
89.00	4552.34
90.00	4784.84
91.00	5198.33
92.00	5605.58
93.00	6035.46
94.00	6371.72
95.00	6562.86
96.00	6548.04
97.00	6459.10
98.00	6334.27
99.00	6285.12
100.00	6169.65
101.00	6154.83
102.00	6213.34
103.00	6411.51
104.00	6576.13
105.00	6583.93
106.00	6524.63
107.00	6530.87
108.00	6545.70
109.00	6606.55
110.00	6637.76
111.00	6650.24
112.00	6661.16
113.00	6613.57
114.00	6665.07
115.00	6762.59
116.00	7102.75
117.00	7504.54
118.00	7935.98
119.00	8205.92
120.00	8357.27
121.00	8417.35
122.00	8375.22
123.00	8404.08
124.00	8509.41
125.00	8672.46
126.00	8957.23
127.00	9219.37
128.00	9451.08
129.00	9470.59
130.00	9260.72
131.00	8945.53
132.00	8501.61
133.00	8141.16
134.00	7577.87
135.00	6968.55
136.00	6164.97
137.00	5449.55
138.00	4882.36
139.00	4670.15
140.00	4832.43
141.00	5351.24
142.00	6101.78
143.00	6962.31
144.00	7723.77
145.00	8381.46
146.00	8908.86
147.00	9473.71
148.00	9873.94
149.00	10181.33
150.00	10104.09
151.00	9827.13
152.00	9217.81
153.00	8461.82
154.00	7556.81
155.00	6739.96
156.00	6046.38
157.00	5807.65
158.00	6093.97
159.00	6871.03
160.00	7972.64
161.00	9025.89
162.00	10118.14
163.00	10968.53
164.00	11708.14
165.00	12230.86
166.00	12550.73
167.00	12822.23
168.00	13135.87
169.00	13475.24
170.00	13696.82
171.00	13772.49
172.00	13813.84
173.00	13995.62
174.00	14029.17
175.00	14138.40
176.00	14171.16
177.00	14310.82
178.00	14431.74
179.00	14677.50
180.00	14896.73
181.00	15025.46
182.00	15152.63
183.00	15292.28
184.00	15516.97
185.00	15499.03
186.00	15449.10
187.00	15396.82
188.00	15217.38
189.00	15013.76
190.00	14854.60
191.00	14923.26
192.00	15312.56
193.00	15612.93
194.00	15657.40
195.00	15365.62
196.00	15018.44
197.00	14921.70
198.00	15047.30
199.00	15190.86
200.00	15405.41
201.00	15394.48
202.00	15421.79
203.00	15193.98
204.00	15043.40
205.00	14797.65
206.00	14728.99
207.00	14791.41
208.00	15100.36
209.00	15388.24
210.00	15580.17
211.00	15447.54
212.00	15361.72
213.00	15333.63
214.00	15620.74
215.00	16001.46
216.00	16375.17
217.00	16741.07
218.00	16976.69
219.00	17317.62
220.00	17500.19
221.00	17468.98
222.00	17103.07
223.00	16393.11
224.00	15763.51
225.00	15275.90
226.00	15146.39
227.00	15305.54
228.00	15555.98
229.00	16128.63
230.00	16678.66
231.00	17388.62
232.00	17892.62
233.00	18230.43
234.00	18334.98
235.00	18327.17
236.00	18473.85
237.00	18525.34
238.00	18462.93
239.00	18216.39
240.00	18050.99
241.00	18000.28
242.00	18004.18
243.00	18060.35
244.00	18373.99
245.00	18692.30
246.00	18919.33
247.00	18956.00
248.00	18829.61
249.00	18764.07
250.00	18725.07
251.00	18928.69
252.00	19042.60
253.00	19076.93
254.00	19066.00
255.00	19396.02
256.00	19672.20
257.00	20073.21
258.00	20244.85
259.00	20508.55
260.00	20465.64
261.00	20205.06
262.00	19728.38
263.00	19340.63
264.00	19226.72
265.00	19217.36
266.00	19417.08
267.00	19579.36
268.00	19792.35
269.00	19814.20
270.00	19837.60
271.00	19833.70
272.00	20035.77
273.00	20226.91
274.00	20258.90
275.00	20173.86
276.00	19971.79
277.00	19755.68
278.00	19638.66
279.00	19761.14
280.00	20323.65
281.00	20852.61
282.00	21451.79
283.00	21648.40
284.00	21739.68
285.00	21618.75
286.00	21724.07
287.00	21499.38
288.00	21163.12
289.00	20655.23
290.00	20110.66
291.00	19556.74
292.00	19278.99
293.00	19588.72
294.00	20071.65
295.00	20375.92
296.00	20424.29
297.00	20404.01
298.00	20472.67
299.00	20451.60
300.00	20546.00
301.00	20252.66
302.00	20296.35
303.00	20191.80
304.00	20375.92
305.00	20308.05
306.00	20130.95
307.00	20004.56
308.00	19889.09
309.00	19811.85
310.00	20052.15
311.00	20386.85
312.00	20620.90
313.00	20278.40
314.00	19578.58
315.00	18948.20
316.00	18702.44
317.00	18745.35
318.00	19215.80
319.00	19481.06
320.00	19882.07
321.00	19819.66
322.00	19718.23
323.00	19415.52
324.00	19197.07
325.00	19065.22
326.00	18997.35
327.00	18796.06
328.00	18366.18
329.00	17521.25
330.00	16688.02
331.00	15733.86
332.00	15093.33
333.00	14576.08
334.00	14416.92
335.00	14624.45
336.00	15215.04
337.00	16404.81
338.00	18086.10
339.00	19887.53
340.00	21366.75
341.00	21987.77
342.00	21859.82
343.00	21418.24
344.00	20925.17
345.00	20964.18
346.00	21283.27
347.00	21840.32
348.00	22195.30
349.00	22001.82
350.00	21266.89
351.00	20378.26
352.00	19801.71
353.00	19839.16
354.00	20209.75
355.00	20748.85
356.00	21394.84
357.00	21960.47
358.00	22162.53
359.00	22317.79
360.00	22387.22
361.00	22991.08
362.00	23323.44
363.00	23885.95
364.00	24082.55
365.00	24258.87
366.00	24151.99
367.00	24031.06
368.00	23768.92
369.00	23290.67
370.00	23030.87
371.00	22782.77
372.00	22636.88
373.00	22104.02
374.00	21512.64
375.00	21108.51
376.00	20927.51
377.00	21138.16
378.00	21472.85
379.00	22057.21
380.00	22727.38
381.00	23358.55
382.00	23769.70
383.00	23974.11
384.00	23901.55
385.00	23718.21
386.00	23516.14
387.00	23732.25
388.00	24093.47
389.00	24765.99
390.00	25361.26
391.00	25913.63
392.00	26167.97
393.00	26451.17
394.00	26764.81
395.00	27076.10
396.00	27307.03
397.00	27544.98
398.00	27762.65
399.00	27821.17
400.00	27575.41
401.00	27511.44
402.00	27431.86
403.00	27835.99
404.00	28026.35
405.00	28146.50
406.00	28141.04
407.00	28069.26
408.00	27743.93
409.00	27649.53
410.00	27725.21
411.00	28101.25
412.00	27574.63
413.00	26899.00
414.00	26079.81
415.00	25847.32
416.00	25713.13
417.00	25886.32
418.00	26213.22
419.00	26587.71
420.00	26980.14
421.00	27419.38
422.00	27928.83
423.00	28413.32
424.00	28712.91
425.00	28879.87
426.00	28843.20
427.00	28546.73
428.00	28318.92
429.00	28256.51
430.00	28492.12
431.00	28522.55
432.00	28486.66
433.00	28248.71
434.00	28371.97
435.00	28616.17
436.00	28941.50
437.00	29252.80
438.00	29431.46
439.00	29828.57
440.00	30210.07
441.00	30717.97
442.00	30874.79
443.00	30891.95
444.00	30698.47
445.00	30556.47
446.00	30134.40
447.00	30022.05
448.00	29771.61
449.00	29825.45
450.00	29551.60
451.00	29358.12
452.00	28719.93
453.00	28136.36
454.00	27537.18
455.00	27473.21
456.00	27743.15
457.00	28261.19
458.00	28698.09
459.00	28867.39
460.00	29182.58
461.00	29266.84
462.00	29523.52
463.00	29371.38
464.00	29426.78
465.00	29298.05
466.00	29309.75
467.00	29514.16
468.00	29672.53
469.00	30242.06
470.00	30543.99
471.00	30904.43
472.00	30783.51
473.00	30774.14
474.00	30956.71
475.00	31177.50
476.00	31486.45
477.00	31715.82
478.00	31804.76
479.00	31803.20
480.00	31385.02
481.00	31231.33
482.00	30600.94
483.00	30213.98
484.00	30197.59
485.00	30500.30
486.00	30836.56
487.00	30778.04
488.00	30814.71
489.00	30789.75
490.00	30795.99
491.00	30729.67
492.00	30803.01
493.00	30793.65
494.00	30913.02
495.00	31063.59
496.00	31359.28
497.00	31725.18
498.00	32058.32
499.00	32102.01
500.00	32044.27
501.00	31967.04
502.00	32121.51
503.00	32451.53
504.00	32687.92
505.00	32988.29
506.00	32924.32
507.00	33141.21
508.00	32995.31
509.00	32925.88
510.00	32736.29
511.00	32627.07
512.00	32613.02
513.00	32519.40
514.00	32376.63
515.00	32241.66
516.00	32051.30
517.00	31782.13
518.00	31481.77
519.00	31101.82
520.00	31275.02
521.00	31388.14
522.00	31636.24
523.00	31984.98
524.00	32208.11
525.00	32630.97
526.00	32266.63
527.00	31897.60
528.00	31062.03
529.00	30526.05
530.00	30342.70
531.00	30493.28
532.00	30910.68
533.00	31172.03
534.00	31297.64
535.00	31472.40
536.00	31416.23
537.00	31387.36
538.00	31310.91
539.00	31470.06
540.00	31681.49
541.00	31831.29
542.00	31820.36
543.00	32026.33
544.00	32009.17
545.00	32097.33
546.00	31596.45
547.00	31278.14
548.00	30861.52
549.00	31002.74
550.00	31044.87
551.00	31299.20
552.00	31249.27
553.00	31415.45
554.00	31538.72
555.00	32239.32
556.00	32743.31
557.00	33345.61
558.00	33661.58
559.00	33990.04
560.00	34275.59
561.00	34233.46
562.00	33896.42
563.00	33354.19
564.00	33017.94
565.00	33098.30
566.00	33398.66
567.00	33429.87
568.00	33479.02
569.00	33368.24
570.00	33834.00
571.00	34362.97
572.00	34873.98
573.00	34896.61
574.00	34781.14
575.00	34650.07
576.00	34846.68
577.00	34835.75
578.00	34895.83
579.00	34532.26
580.00	34461.27
581.00	34355.16
582.00	34459.71
583.00	34418.36
584.00	34688.30
585.00	35044.06
586.00	35771.97
587.00	36062.97
588.00	36477.25
589.00	36891.52
590.00	37389.28
591.00	37821.50
592.00	37982.99
593.00	38096.12
594.00	38061.01
595.00	37886.25
596.00	37949.45
597.00	38121.87
598.00	38769.41
599.00	39379.51
600.00	39898.33
601.00	39866.34
602.00	39733.71
603.00	39773.50
604.00	39985.71
605.00	40431.97
606.00	40412.47
607.00	40558.36
608.00	40633.26
609.00	40989.02
610.00	41191.87
611.00	41467.27
612.00	41789.48
613.00	42212.34
614.00	42329.37
615.00	42362.92
616.00	42317.67
617.00	42310.64
618.00	42474.48
619.00	42835.70
620.00	43036.99
621.00	43250.76
622.00	43334.24
623.00	43605.74
624.00	43550.35
625.00	43459.85
626.00	43370.91
627.00	43519.92
628.00	43531.62
629.00	44010.65
630.00	44325.85
631.00	44190.87
632.00	43403.67
633.00	42485.40
634.00	41331.52
635.00	39594.84
636.00	37765.32
637.00	36853.30
638.00	37213.74
639.00	38469.83
640.00	39969.33
641.00	41126.33
642.00	42005.59
643.00	42755.35
644.00	43761.00
645.00	44598.91
646.00	45344.76
647.00	45952.52
648.00	46419.84
649.00	46862.21
650.00	46796.67
651.00	46713.19
652.00	46147.56
653.00	46018.05
654.00	46388.64
655.00	47473.87
656.00	48587.18
657.00	49385.30
658.00	49789.44
659.00	50249.74
660.00	50444.79
661.00	50449.47
662.00	50173.28
663.00	50025.83
664.00	49919.73
665.00	49854.19
666.00	49925.19
667.00	49731.70
668.00	49311.97
669.00	48471.71
670.00	48023.11
671.00	48019.99
672.00	48751.80
673.00	49671.63
674.00	50641.39
675.00	51256.17
676.00	51651.72
677.00	51626.76
678.00	51258.51
679.00	50926.94
680.00	50962.82
681.00	51388.02
682.00	51966.13
683.00	52500.56
684.00	52973.34
685.00	53323.64
686.00	53546.00
687.00	53635.72
688.00	53503.87
689.00	53180.87
690.00	52750.21
691.00	52605.88
692.00	52694.04
693.00	53215.20
694.00	53704.37
695.00	54103.82
696.00	54120.99
697.00	54073.40
698.00	54135.03
699.00	54305.89
700.00	54416.68
701.00	54410.43
702.00	54184.18
703.00	53777.71
704.00	53229.24
705.00	52844.62
706.00	52755.68
707.00	53019.38
708.00	53425.85
709.00	53911.90
710.00	54195.88
711.00	54588.31
712.00	54717.04
713.00	54886.34
714.00	54757.61
715.00	54497.03
716.00	53911.90
717.00	53508.55
718.00	53109.10
719.00	53153.57
720.00	53022.50
721.00	52979.59
722.00	52708.86
723.00	52587.16
724.00	52580.13
725.00	52633.19
726.00	52724.47
727.00	53074.77
728.00	53454.72
729.00	53835.44
730.00	53983.68
731.00	54198.23
732.00	54311.35
733.00	54452.56
734.00	54453.34
735.00	54281.70
736.00	53910.34
737.00	53381.38
738.00	52995.97
739.00	53021.72
740.00	53454.72
741.00	54045.31
742.00	54403.41
743.00	54450.22
744.00	54570.37
745.00	54823.93
746.00	55242.88
747.00	55641.56
748.00	55954.41
749.00	56150.23
750.00	56074.55
751.00	55770.28
752.00	55587.72
753.00	55411.40
754.00	55434.03
755.00	55211.68
756.00	55104.79
757.00	54912.09
758.00	54802.08
759.00	54568.81
760.00	54251.28
761.00	54124.11
762.00	54197.44
763.00	54546.97
764.00	54952.66
765.00	55378.64
766.00	55796.03
767.00	56130.73
768.00	56294.56
769.00	56139.31
770.00	55869.37
771.00	55636.09
772.00	55596.31
773.00	55597.87
774.00	55589.28
775.00	55549.49
776.00	55524.53
777.00	55579.14
778.00	55698.51
779.00	55998.10
780.00	56287.54
781.00	56648.77
782.00	56788.42
783.00	56771.25
784.00	56527.06
785.00	56135.41
786.00	55686.03
787.00	55356.79
788.00	55254.59
789.00	55457.43
790.00	55545.59
791.00	55609.57
792.00	55518.29
793.00	55397.36
794.00	55214.80
795.00	54957.34
796.00	55025.99
797.00	55009.61
798.00	55203.10
799.00	55231.18
800.00	55388.78
801.00	55401.26
802.00	55479.28
803.00	55583.82
804.00	55764.04
805.00	56001.22
806.00	56144.77
807.00	55868.59
808.00	55131.32
809.00	53944.67
810.00	52718.23
811.00	51441.85
812.00	50273.15
813.00	49667.73
814.00	50026.61
815.00	51333.41
816.00	52757.24
817.00	53578.76
818.00	53602.95
819.00	53034.20
820.00	52346.86
821.00	52081.60
822.00	52357.78
823.00	52965.54
824.00	53523.37
825.00	54103.82
826.00	54526.68
827.00	54964.36
828.00	55256.93
829.00	55631.41
830.00	55806.17
831.00	55808.51
832.00	55729.72
833.00	55516.73
834.00	55547.15
835.00	55434.81
836.00	55695.39
837.00	55878.73
838.00	56128.39
839.00	56226.69
840.00	56216.55
841.00	56330.45
842.00	56435.78
843.00	56342.94
844.00	55892.77
845.00	55366.15
846.00	55052.52
847.00	54909.75
848.00	54955.00
849.00	55199.19
850.00	55590.84
851.00	56070.65
852.00	56389.75
853.00	56727.56
854.00	56860.97
855.00	57034.95
856.00	57034.17
857.00	56936.65
858.00	56759.55
859.00	56548.90
860.00	56505.99
861.00	56466.20
862.00	56635.50
863.00	56718.98
864.00	56555.14
865.00	56060.51
866.00	55189.83
867.00	54299.65
868.00	53321.30
869.00	52761.92
870.00	52473.25
871.00	52797.80
872.00	53189.45
873.00	53873.67
874.00	54529.02
875.00	55125.86
876.00	55498.00
877.00	55599.43
878.00	55696.95
879.00	55960.65
880.00	56410.03
881.00	56833.67
882.00	57057.58
883.00	57099.71
884.00	56938.21
885.00	56571.53
886.00	56200.94
887.00	55984.05
888.00	55947.39
889.00	55985.61
890.00	56226.69
891.00	56406.91
892.00	56786.86
893.00	56853.95
894.00	57004.53
895.00	56910.91
896.00	56880.48
897.00	56692.46
898.00	56492.73
899.00	56339.04
900.00	56073.77
901.00	55689.15
902.00	55107.91
903.00	54551.65
904.00	54140.49
905.00	54067.16
906.00	54213.05
907.00	54666.33
908.00	55054.86
909.00	55657.94
910.00	55789.79
911.00	55838.16
912.00	55552.62
913.00	55496.44
914.00	55338.85
915.00	55402.82
916.00	55387.22
917.00	55593.18
918.00	55859.23
919.00	56072.99
920.00	56329.67
921.00	56466.20
922.00	56685.43
923.00	56590.25
924.00	56384.29
925.00	56012.92
926.00	55664.96
927.00	55167.21
928.00	54635.91
929.00	54365.18
930.00	54392.49
931.00	54577.39
932.00	54981.52
933.00	55226.50
934.00	55459.77
935.00	55379.42
936.00	55345.87
937.00	55379.42
938.00	55348.21
939.00	55405.16
940.00	55314.66
941.00	55027.56
942.00	54692.08
943.00	54405.75
944.00	54249.72
945.00	54038.29
946.00	53902.54
947.00	53741.04
948.00	53744.94
949.00	53400.88
950.00	53311.94
951.00	53134.06
952.00	53196.48
953.00	53244.85
954.00	53410.24
955.00	53782.39
956.00	54092.12
957.00	54316.81
958.00	54384.69
959.00	54501.71
960.00	54404.97
961.00	54257.52
962.00	54111.63
963.00	54068.72
964.00	54121.77
965.00	53918.14
966.00	53962.61
967.00	54013.32
968.00	54241.92
969.00	54426.04
970.00	54827.83
971.00	55230.40
972.00	55328.70
973.00	55038.48
974.00	54740.45
975.00	54703.00
976.00	54570.37
977.00	54533.70
978.00	54346.46
979.00	54411.99
980.00	54342.56
981.00	54504.06
982.00	54460.37
983.00	54471.29
984.00	54211.49
985.00	54151.41
986.00	54082.76
987.00	54042.97
988.00	54163.12
989.00	54046.09
990.00	54056.23
991.00	53592.03
992.00	53337.69
993.00	52926.53
994.00	53059.94
995.00	53227.68
996.00	53589.69
997.00	53872.11
998.00	54168.58
999.00	54291.85
1000.00	54211.49
1001.00	54220.07
1002.00	54094.46
1003.00	54064.81
1004.00	54053.89
1005.00	54090.56
1006.00	54138.15
1007.00	53904.10
1008.00	53821.40
1009.00	53680.19
1010.00	53696.57
1011.00	53639.62
1012.00	53606.85
1013.00	53392.30
1014.00	53328.33
1015.00	53357.19
1016.00	53430.53
1017.00	53767.57
1018.00	53911.90
1019.00	54238.01
1020.00	53982.90
1021.00	53794.09
1022.00	53478.90
1023.00	53159.81
1024.00	52943.70
1025.00	52861.78
1026.00	53155.13
1027.00	53404.78
1028.00	53551.46
1029.00	53517.13
1030.00	53427.41
1031.00	53623.23
1032.00	53666.14
1033.00	53920.48
1034.00	53819.06
1035.00	53956.37
1036.00	53904.10
1037.00	53894.74
1038.00	53783.95
1039.00	53603.73
1040.00	53457.06
1041.00	53345.49
1042.00	53119.24
1043.00	52995.97
1044.00	52976.47
1045.00	52939.02
1046.00	52763.48
1047.00	52443.60
1048.00	52236.86
1049.00	52148.70
1050.00	52214.23
1051.00	52262.60
1052.00	52324.24
1053.00	52403.81
1054.00	52545.81
1055.00	52525.52
1056.00	52300.83
1057.00	51897.48
1058.00	51468.38
1059.00	50933.18
1060.00	50700.68
1061.00	50522.80
1062.00	50679.62
1063.00	50873.88
1064.00	51126.66
1065.00	51192.98
1066.00	50969.85
1067.00	50859.84
1068.00	50887.15
1069.00	51270.22
1070.00	51637.68
1071.00	52176.78
1072.00	52542.69
1073.00	52705.74
1074.00	52452.97
1075.00	51989.54
1076.00	51530.01
1077.00	51153.97
1078.00	50962.04
1079.00	51023.68
1080.00	51047.08
1081.00	51161.77
1082.00	51150.07
1083.00	51200.78
1084.00	51309.22
1085.00	51461.36
1086.00	51607.25
1087.00	51544.06
1088.00	51377.88
1089.00	51280.36
1090.00	51139.14
1091.00	51018.22
1092.00	50884.81
1093.00	50768.56
1094.00	50914.45
1095.00	50906.65
1096.00	51056.45
1097.00	50900.41
1098.00	50707.71
1099.00	50557.91
1100.00	50271.59
1101.00	49996.96
1102.00	49549.14
1103.00	49291.68
1104.00	49326.79
1105.00	49524.18
1106.00	49627.94
1107.00	49732.48
1108.00	49876.82
1109.00	50093.71
1110.00	50373.01
1111.00	50429.96
1112.00	50578.20
1113.00	50564.15
1114.00	50479.11
1115.00	50156.12
1116.00	49645.10
1117.00	49245.65
1118.00	48845.42
1119.00	48700.31
1120.00	48516.96
1121.00	48531.79
1122.00	48552.85
1123.00	48636.33
1124.00	48807.19
1125.00	48623.85
1126.00	48669.88
1127.00	48548.95
1128.00	48546.61
1129.00	48236.10
1130.00	47927.15
1131.00	47564.37
1132.00	47178.96
1133.00	46773.27
1134.00	46603.19
1135.00	46635.95
1136.00	46739.72
1137.00	47019.80
1138.00	47255.42
1139.00	47728.98
1140.00	47952.12
1141.00	48190.85
1142.00	48207.23
1143.00	48323.48
1144.00	48363.27
1145.00	48413.20
1146.00	48373.41
1147.00	48317.24
1148.00	48163.54
1149.00	48044.96
1150.00	47952.12
1151.00	47857.71
1152.00	47847.57
1153.00	47834.31
1154.00	47704.02
1155.00	47335.77
1156.00	46878.59
1157.00	46684.33
1158.00	46459.63
1159.00	46401.12
1160.00	46146.78
1161.00	46102.31
1162.00	45989.97
1163.00	45855.00
1164.00	45715.34
1165.00	45786.34
1166.00	45864.36
1167.00	45954.08
1168.00	45961.88
1169.00	46185.79
1170.00	46224.80
1171.00	46231.82
1172.00	46009.47
1173.00	45841.73
1174.00	45709.88
1175.00	45567.11
1176.00	45369.72
1177.00	44968.71
1178.00	44598.91
1179.00	44349.25
1180.00	44394.50
1181.00	44489.68
1182.00	44712.81
1183.00	44806.44
1184.00	44910.20
1185.00	44978.86
1186.00	44963.25
1187.00	45280.00
1188.00	45525.76
1189.00	45671.65
1190.00	45655.27
1191.00	45609.24
1192.00	45385.33
1193.00	45228.51
1194.00	45120.07
1195.00	45350.22
1196.00	45357.24
1197.00	45291.71
1198.00	45303.41
1199.00	45311.21
1200.00	45614.70
1201.00	45740.31
1202.00	45862.02
1203.00	45961.88
1204.00	45927.55
1205.00	46133.52
1206.00	46071.10
1207.00	46120.26
1208.00	46006.35
1209.00	45947.84
1210.00	45984.51
1211.00	45865.92
1212.00	45823.79
1213.00	45615.48
1214.00	45648.25
1215.00	45461.01
