SpectraSuite Data File
++++++++++++++++++++++++++++++++++++
Date: Thu Nov 16 13:32:52 EST 2017
User: cheriyan
Dark Spectrum Present: No
Reference Spectrum Present: No
Number of Sampled Component Spectra: 1
Spectrometers: USB2+H05261
Integration Time (usec): 90000 (USB2+H05261)
Spectra Averaged: 1 (USB2+H05261)
Boxcar Smoothing: 1 (USB2+H05261)
Correct for Electrical Dark: No (USB2+H05261)
Strobe/Lamp Enabled: No (USB2+H05261)
Correct for Detector Non-linearity: No (USB2+H05261)
Correct for Stray Light: No (USB2+H05261)
Number of Pixels in Processed Spectrum: 2048
>>>>>Begin Processed Spectral Data<<<<<
0.00	407.25
1.00	407.25
2.00	372.15
3.00	315.97
4.00	259.02
5.00	230.15
6.00	262.14
7.00	283.20
8.00	306.61
9.00	298.03
10.00	262.92
11.00	262.92
12.00	247.32
13.00	277.74
14.00	265.26
15.00	275.40
16.00	267.60
17.00	280.86
18.00	273.06
19.00	266.82
20.00	278.52
21.00	296.47
22.00	344.84
23.00	801.24
24.00	2448.98
25.00	4213.74
26.00	5589.98
27.00	5728.07
28.00	5623.53
29.00	5373.09
30.00	5198.33
31.00	5089.88
32.00	5136.70
33.00	5200.67
34.00	5204.57
35.00	5066.48
36.00	4794.98
37.00	4662.35
38.00	4645.96
39.00	4763.77
40.00	4833.99
41.00	4883.92
42.00	4833.99
43.00	4757.53
44.00	4798.10
45.00	5003.29
46.00	5369.97
47.00	5630.55
48.00	5756.94
49.00	5719.49
50.00	5675.80
51.00	5689.06
52.00	5770.98
53.00	5891.91
54.00	6054.19
55.00	6252.35
56.00	6466.12
57.00	6732.16
58.00	6999.76
59.00	7267.36
60.00	7389.85
61.00	7358.64
62.00	7211.97
63.00	6983.38
64.00	6723.58
65.00	6449.74
66.00	6231.29
67.00	6095.54
68.00	6007.38
69.00	6043.26
70.00	6170.43
71.00	6402.15
72.00	6629.18
73.00	6844.51
74.00	6955.29
75.00	6882.74
76.00	6716.56
77.00	6497.33
78.00	6259.37
79.00	5969.93
80.00	5678.14
81.00	5415.22
82.00	5117.19
83.00	4895.62
84.00	4707.60
85.00	4632.70
86.00	4558.58
87.00	4531.28
88.00	4572.63
89.00	4631.14
90.00	4855.05
91.00	5223.30
92.00	5713.25
93.00	6162.63
94.00	6448.18
95.00	6605.77
96.00	6577.69
97.00	6532.44
98.00	6369.38
99.00	6221.14
100.00	6120.50
101.00	6147.03
102.00	6349.09
103.00	6599.53
104.00	6742.30
105.00	6680.67
106.00	6536.34
107.00	6452.08
108.00	6486.40
109.00	6530.87
110.00	6601.87
111.00	6597.19
112.00	6590.17
113.00	6553.50
114.00	6629.96
115.00	6786.77
116.00	7126.93
117.00	7510.78
118.00	7801.01
119.00	8050.66
120.00	8277.69
121.00	8457.14
122.00	8490.68
123.00	8489.12
124.00	8528.13
125.00	8678.71
126.00	8900.28
127.00	9273.20
128.00	9529.10
129.00	9544.70
130.00	9326.25
131.00	8982.98
132.00	8610.83
133.00	8154.43
134.00	7612.98
135.00	6941.25
136.00	6140.01
137.00	5389.47
138.00	4795.76
139.00	4593.69
140.00	4780.93
141.00	5313.80
142.00	6132.98
143.00	6904.58
144.00	7666.81
145.00	8301.88
146.00	8964.25
147.00	9514.28
148.00	9830.25
149.00	10051.82
150.00	10056.50
151.00	9900.47
152.00	9381.65
153.00	8631.12
154.00	7700.36
155.00	6769.61
156.00	6083.05
157.00	5776.44
158.00	6047.94
159.00	6835.14
160.00	7926.61
161.00	9142.13
162.00	10218.78
163.00	11076.98
164.00	11649.63
165.00	12085.75
166.00	12561.66
167.00	12847.98
168.00	13170.19
169.00	13337.15
170.00	13611.00
171.00	13683.55
172.00	13779.51
173.00	13887.96
174.00	13942.57
175.00	14063.50
176.00	14095.49
177.00	14356.85
178.00	14517.56
179.00	14818.71
180.00	14979.43
181.00	15234.55
182.00	15406.97
183.00	15576.27
184.00	15698.75
185.00	15673.79
186.00	15639.46
187.00	15467.04
188.00	15289.94
189.00	15059.01
190.00	14923.26
191.00	15050.42
192.00	15305.54
193.00	15594.21
194.00	15740.88
195.00	15553.64
196.00	15207.24
197.00	14964.61
198.00	15143.27
199.00	15272.78
200.00	15396.82
201.00	15359.38
202.00	15388.24
203.00	15257.17
204.00	15080.85
205.00	14881.91
206.00	14610.40
207.00	14590.12
208.00	14825.73
209.00	15244.69
210.00	15381.22
211.00	15360.94
212.00	15220.50
213.00	15379.66
214.00	15660.52
215.00	16041.25
216.00	16313.53
217.00	16733.27
218.00	17021.94
219.00	17262.23
220.00	17243.51
221.00	17330.89
222.00	17035.20
223.00	16446.94
224.00	15781.45
225.00	15223.62
226.00	14989.57
227.00	15052.77
228.00	15462.36
229.00	16105.23
230.00	16812.07
231.00	17495.50
232.00	18072.84
233.00	18350.58
234.00	18557.33
235.00	18636.13
236.00	18728.97
237.00	18719.60
238.00	18587.75
239.00	18416.12
240.00	18189.86
241.00	18101.70
242.00	18016.66
243.00	18203.13
244.00	18446.54
245.00	18686.84
246.00	18835.07
247.00	18845.21
248.00	18798.40
249.00	18771.10
250.00	18856.92
251.00	18969.26
252.00	19043.38
253.00	18978.62
254.00	19108.13
255.00	19389.00
256.00	19836.04
257.00	20170.74
258.00	20396.21
259.00	20329.89
260.00	20279.18
261.00	20002.22
262.00	19847.74
263.00	19563.76
264.00	19384.32
265.00	19334.39
266.00	19387.44
267.00	19530.99
268.00	19595.75
269.00	19580.14
270.00	19630.07
271.00	19682.34
272.00	20013.14
273.00	20339.26
274.00	20381.38
275.00	20187.12
276.00	19758.02
277.00	19540.35
278.00	19444.39
279.00	19760.36
280.00	20279.18
281.00	20915.03
282.00	21371.43
283.00	21722.51
284.00	21817.69
285.00	21739.68
286.00	21664.00
287.00	21424.48
288.00	21207.59
289.00	20719.20
290.00	20225.35
291.00	19571.56
292.00	19298.50
293.00	19484.18
294.00	20012.36
295.00	20372.02
296.00	20528.84
297.00	20417.27
298.00	20552.24
299.00	20572.53
300.00	20811.26
301.00	20480.47
302.00	20381.38
303.00	20168.40
304.00	20233.15
305.00	20205.84
306.00	20106.76
307.00	20113.78
308.00	19922.64
309.00	19855.54
310.00	19961.65
311.00	20318.97
312.00	20391.53
313.00	20272.16
314.00	19643.34
315.00	19127.64
316.00	18690.74
317.00	18817.13
318.00	19147.92
319.00	19515.39
320.00	19882.07
321.00	20027.96
322.00	19921.08
323.00	19522.41
324.00	19312.54
325.00	19114.38
326.00	19035.58
327.00	18767.20
328.00	18278.02
329.00	17506.43
330.00	16732.49
331.00	15828.26
332.00	15193.98
333.00	14656.43
334.00	14592.46
335.00	14670.48
336.00	15169.79
337.00	16354.88
338.00	18203.91
339.00	20201.16
340.00	21667.12
341.00	22260.06
342.00	21811.45
343.00	21205.25
344.00	20588.13
345.00	20776.16
346.00	21354.27
347.00	22068.91
348.00	22448.86
349.00	22224.95
350.00	21415.12
351.00	20354.08
352.00	19545.81
353.00	19679.22
354.00	20361.88
355.00	21017.23
356.00	21580.52
357.00	21971.39
358.00	22238.21
359.00	22403.61
360.00	22483.97
361.00	23023.07
362.00	23343.72
363.00	23710.41
364.00	23851.62
365.00	23944.46
366.00	23985.81
367.00	23832.90
368.00	23642.53
369.00	23318.76
370.00	23183.01
371.00	23028.53
372.00	22799.16
373.00	22184.38
374.00	21474.42
375.00	21052.34
376.00	20904.88
377.00	21042.20
378.00	21400.30
379.00	21980.75
380.00	22554.96
381.00	23213.43
382.00	23719.77
383.00	24154.33
384.00	24094.25
385.00	23740.05
386.00	23569.97
387.00	23650.33
388.00	24041.98
389.00	24723.86
390.00	25448.64
391.00	25973.70
392.00	26232.72
393.00	26512.03
394.00	26826.44
395.00	27089.36
396.00	27182.98
397.00	27491.15
398.00	27693.22
399.00	27948.34
400.00	27779.82
401.00	27574.63
402.00	27427.96
403.00	27589.45
404.00	27881.24
405.00	28091.11
406.00	28369.63
407.00	28129.34
408.00	27874.22
409.00	27740.03
410.00	28006.85
411.00	28205.80
412.00	27697.12
413.00	26984.82
414.00	26194.50
415.00	25749.79
416.00	25672.56
417.00	25864.48
418.00	26414.51
419.00	26803.03
420.00	27213.41
421.00	27592.58
422.00	27990.47
423.00	28358.71
424.00	28629.43
425.00	28781.57
426.00	28680.14
427.00	28493.68
428.00	28411.76
429.00	28425.81
430.00	28519.43
431.00	28368.85
432.00	28305.66
433.00	28109.83
434.00	28325.16
435.00	28440.63
436.00	28733.20
437.00	29027.32
438.00	29470.47
439.00	29915.17
440.00	30597.82
441.00	30948.90
442.00	31237.57
443.00	30961.39
444.00	30765.56
445.00	30553.35
446.00	30384.83
447.00	30399.66
448.00	30221.78
449.00	30028.29
450.00	29682.67
451.00	29269.96
452.00	28661.42
453.00	28020.11
454.00	27603.50
455.00	27475.55
456.00	27742.37
457.00	28182.39
458.00	28765.96
459.00	29073.35
460.00	29342.52
461.00	29622.60
462.00	29852.75
463.00	29626.50
464.00	29268.40
465.00	29032.79
466.00	29078.82
467.00	29481.39
468.00	29573.45
469.00	30082.13
470.00	30359.87
471.00	30950.46
472.00	31022.24
473.00	31044.09
474.00	31246.15
475.00	31396.73
476.00	31576.95
477.00	31603.47
478.00	31746.25
479.00	31866.39
480.00	31564.46
481.00	31340.55
482.00	30742.94
483.00	30376.25
484.00	30252.98
485.00	30486.26
486.00	30860.74
487.00	30883.37
488.00	30780.39
489.00	30639.95
490.00	30554.13
491.00	30521.37
492.00	30794.43
493.00	30885.71
494.00	31246.15
495.00	31130.69
496.00	31500.49
497.00	31669.01
498.00	32020.87
499.00	32109.03
500.00	31935.05
501.00	32041.93
502.00	32169.88
503.00	32446.07
504.00	32618.49
505.00	32603.66
506.00	32743.31
507.00	32787.00
508.00	32828.35
509.00	32913.39
510.00	32824.45
511.00	32744.09
512.00	32545.15
513.00	32381.31
514.00	32269.75
515.00	32077.04
516.00	31978.74
517.00	31703.34
518.00	31402.19
519.00	31062.03
520.00	31382.68
521.00	31661.21
522.00	31950.65
523.00	32021.65
524.00	32260.38
525.00	32553.73
526.00	32292.37
527.00	31899.94
528.00	31216.50
529.00	30787.41
530.00	30527.61
531.00	30680.52
532.00	31043.31
533.00	31409.99
534.00	31561.34
535.00	31765.75
536.00	31552.76
537.00	31437.30
538.00	31391.26
539.00	31737.66
540.00	31890.58
541.00	31845.33
542.00	31823.48
543.00	31863.27
544.00	31890.58
545.00	31743.13
546.00	31450.56
547.00	31207.14
548.00	31071.39
549.00	31172.03
550.00	31208.70
551.00	31106.50
552.00	31171.25
553.00	31387.36
554.00	31822.70
555.00	32235.42
556.00	32635.65
557.00	33267.59
558.00	33868.33
559.00	34299.77
560.00	34274.02
561.00	34039.97
562.00	33606.97
563.00	33333.13
564.00	33102.20
565.00	33244.19
566.00	33443.13
567.00	33331.57
568.00	33475.90
569.00	33353.41
570.00	33967.41
571.00	34412.12
572.00	34971.50
573.00	34999.59
574.00	35086.97
575.00	35024.56
576.00	35158.75
577.00	34867.74
578.00	34930.94
579.00	34685.18
580.00	34756.96
581.00	34416.02
582.00	34478.43
583.00	34354.38
584.00	34766.32
585.00	35190.73
586.00	35885.09
587.00	36168.30
588.00	36406.25
589.00	36751.09
590.00	37409.56
591.00	37897.95
592.00	38141.37
593.00	38050.09
594.00	37900.29
595.00	37674.82
596.00	37752.84
597.00	38155.41
598.00	38740.55
599.00	39171.99
600.00	39522.29
601.00	39602.64
602.00	39717.33
603.00	39673.64
604.00	39963.87
605.00	40410.91
606.00	40580.99
607.00	40617.66
608.00	40726.10
609.00	41020.23
610.00	41433.72
611.00	41585.86
612.00	42032.12
613.00	42446.40
614.00	42632.86
615.00	42515.05
616.00	42182.70
617.00	42256.03
618.00	42355.11
619.00	42621.94
620.00	42814.64
621.00	43147.00
622.00	43258.56
623.00	43480.91
624.00	43332.68
625.00	43288.21
626.00	43232.04
627.00	43339.70
628.00	43593.26
629.00	43937.32
630.00	44390.60
631.00	44345.35
632.00	43489.49
633.00	42657.82
634.00	41254.28
635.00	39692.36
636.00	37886.25
637.00	37182.53
638.00	37502.40
639.00	38465.14
640.00	39707.19
641.00	40849.37
642.00	41749.70
643.00	42535.34
644.00	43534.74
645.00	44376.56
646.00	45407.95
647.00	45902.59
648.00	46579.00
649.00	46767.80
650.00	46668.72
651.00	46355.09
652.00	45808.18
653.00	45925.99
654.00	46408.92
655.00	47532.38
656.00	48616.83
657.00	49457.86
658.00	50014.13
659.00	50206.05
660.00	50348.82
661.00	50144.42
662.00	50133.49
663.00	49976.68
664.00	49915.04
665.00	49688.79
666.00	49772.27
667.00	49716.88
668.00	49434.45
669.00	48754.92
670.00	48140.92
671.00	48027.79
672.00	48581.72
673.00	49503.11
674.00	50622.67
675.00	51348.23
676.00	51643.92
677.00	51437.17
678.00	51182.05
679.00	51075.17
680.00	51104.04
681.00	51386.46
682.00	51940.39
683.00	52566.87
684.00	53056.82
685.00	53388.40
686.00	53669.26
687.00	53731.68
688.00	53481.24
689.00	53116.12
690.00	52774.40
691.00	52704.18
692.00	52706.52
693.00	53061.51
694.00	53525.71
695.00	53957.15
696.00	54068.72
697.00	54001.62
698.00	54120.99
699.00	54184.96
700.00	54388.59
701.00	54446.32
702.00	54485.33
703.00	54100.70
704.00	53561.60
705.00	52928.09
706.00	52827.45
707.00	53001.43
708.00	53524.15
709.00	54018.00
710.00	54396.39
711.00	54678.82
712.00	54811.45
713.00	54774.78
714.00	54641.37
715.00	54274.68
716.00	53940.77
717.00	53606.85
718.00	53301.02
719.00	53219.10
720.00	53180.09
721.00	53050.58
722.00	53004.55
723.00	52895.33
724.00	52947.60
725.00	52653.47
726.00	52580.13
727.00	52858.66
728.00	53365.77
729.00	53792.53
730.00	54025.81
731.00	54195.10
732.00	54384.69
733.00	54585.19
734.00	54582.07
735.00	54291.07
736.00	53670.82
737.00	53174.63
738.00	52901.57
739.00	53062.29
740.00	53434.43
741.00	53918.14
742.00	54249.72
743.00	54414.33
744.00	54705.34
745.00	55012.73
746.00	55391.12
747.00	55750.00
748.00	55970.01
749.00	56128.39
750.00	55992.64
751.00	55775.75
752.00	55616.59
753.00	55332.60
754.00	55216.36
755.00	55100.11
756.00	55182.81
757.00	55107.13
758.00	54903.51
759.00	54564.91
760.00	54303.55
761.00	54230.21
762.00	54375.33
763.00	54727.97
764.00	55158.62
765.00	55515.17
766.00	55912.28
767.00	56174.42
768.00	56222.01
769.00	56108.10
770.00	55899.01
771.00	55788.23
772.00	55704.75
773.00	55542.47
774.00	55582.26
775.00	55538.57
776.00	55612.69
777.00	55682.90
778.00	55845.18
779.00	56132.29
780.00	56360.10
781.00	56684.65
782.00	56845.37
783.00	56880.48
784.00	56633.16
785.00	56190.02
786.00	55743.76
787.00	55421.55
788.00	55453.53
789.00	55544.03
790.00	55689.93
791.00	55710.21
792.00	55678.22
793.00	55453.53
794.00	55242.88
795.00	55012.73
796.00	54940.17
797.00	54974.50
798.00	55085.29
799.00	55224.16
800.00	55265.51
801.00	55358.35
802.00	55528.43
803.00	55636.87
804.00	55799.15
805.00	55985.61
806.00	56129.95
807.00	55852.20
808.00	55160.97
809.00	54095.24
810.00	52793.12
811.00	51324.05
812.00	50100.73
813.00	49567.09
814.00	50047.68
815.00	51319.37
816.00	52824.33
817.00	53697.35
818.00	53727.00
819.00	53102.85
820.00	52364.81
821.00	52152.60
822.00	52358.56
823.00	53040.44
824.00	53599.83
825.00	54217.73
826.00	54566.47
827.00	54930.03
828.00	55209.34
829.00	55583.04
830.00	55881.85
831.00	55908.38
832.00	55762.48
833.00	55386.44
834.00	55345.87
835.00	55363.81
836.00	55703.19
837.00	55933.34
838.00	56097.18
839.00	56158.03
840.00	56245.41
841.00	56311.73
842.00	56396.77
843.00	56133.07
844.00	55809.29
845.00	55391.90
846.00	55185.15
847.00	55080.61
848.00	55082.95
849.00	55320.90
850.00	55657.94
851.00	56120.59
852.00	56530.18
853.00	56914.81
854.00	57139.50
855.00	57213.62
856.00	57180.85
857.00	56963.96
858.00	56743.17
859.00	56504.43
860.00	56495.85
861.00	56520.04
862.00	56724.44
863.00	56838.35
864.00	56644.87
865.00	56107.32
866.00	55177.35
867.00	54286.39
868.00	53354.85
869.00	52687.02
870.00	52342.18
871.00	52561.41
872.00	53084.13
873.00	53829.20
874.00	54490.79
875.00	55114.94
876.00	55479.28
877.00	55626.73
878.00	55802.27
879.00	56033.99
880.00	56408.47
881.00	56768.13
882.00	56970.98
883.00	57145.74
884.00	56924.17
885.00	56647.99
886.00	56214.21
887.00	56016.82
888.00	55968.45
889.00	56010.58
890.00	56196.26
891.00	56455.28
892.00	56786.86
893.00	56899.98
894.00	56928.85
895.00	56921.05
896.00	56893.74
897.00	56772.03
898.00	56541.88
899.00	56383.51
900.00	56101.86
901.00	55733.62
902.00	55271.75
903.00	54695.20
904.00	54279.36
905.00	54111.63
906.00	54388.59
907.00	54809.10
908.00	55193.73
909.00	55668.08
910.00	55908.38
911.00	55817.10
912.00	55466.02
913.00	55278.77
914.00	55231.18
915.00	55414.52
916.00	55519.85
917.00	55834.26
918.00	56041.01
919.00	56175.98
920.00	56312.51
921.00	56445.14
922.00	56574.65
923.00	56572.31
924.00	56308.61
925.00	56051.15
926.00	55679.78
927.00	55304.52
928.00	54712.36
929.00	54312.13
930.00	54255.18
931.00	54568.03
932.00	55020.53
933.00	55368.49
934.00	55518.29
935.00	55559.64
936.00	55480.84
937.00	55590.84
938.00	55487.86
939.00	55439.49
940.00	55280.33
941.00	55092.31
942.00	54876.98
943.00	54593.78
944.00	54409.65
945.00	54259.08
946.00	54137.37
947.00	53927.50
948.00	53841.68
949.00	53620.89
950.00	53546.78
951.00	53344.71
952.00	53212.86
953.00	53229.24
954.00	53471.88
955.00	53896.30
956.00	54168.58
957.00	54326.17
958.00	54498.59
959.00	54585.19
960.00	54443.20
961.00	54165.46
962.00	53998.50
963.00	54008.64
964.00	54064.03
965.00	54018.00
966.00	54068.72
967.00	54188.86
968.00	54449.44
969.00	54536.82
970.00	54822.37
971.00	55042.38
972.00	55251.47
973.00	54967.48
974.00	54741.23
975.00	54627.32
976.00	54656.97
977.00	54592.22
978.00	54455.68
979.00	54429.94
980.00	54356.60
981.00	54565.69
982.00	54547.75
983.00	54448.66
984.00	54250.50
985.00	54167.80
986.00	54245.04
987.00	54070.28
988.00	54143.61
989.00	54010.20
990.00	54012.54
991.00	53634.94
992.00	53373.58
993.00	53070.87
994.00	53119.24
995.00	53300.24
996.00	53670.04
997.00	54042.19
998.00	54287.17
999.00	54373.77
1000.00	54364.40
1001.00	54420.58
1002.00	54333.20
1003.00	54079.64
1004.00	53925.16
1005.00	53877.57
1006.00	54002.40
1007.00	54032.05
1008.00	53920.48
1009.00	53703.59
1010.00	53532.73
1011.00	53460.96
1012.00	53526.49
1013.00	53326.77
1014.00	53349.39
1015.00	53343.15
1016.00	53598.27
1017.00	53833.88
1018.00	54049.21
1019.00	54156.88
1020.00	54015.66
1021.00	53788.63
1022.00	53520.25
1023.00	53134.84
1024.00	52837.59
1025.00	52857.10
1026.00	53221.44
1027.00	53505.43
1028.00	53702.03
1029.00	53599.05
1030.00	53585.78
1031.00	53718.42
1032.00	53881.47
1033.00	54017.22
1034.00	53888.49
1035.00	53865.87
1036.00	53993.82
1037.00	53940.77
1038.00	53885.37
1039.00	53592.03
1040.00	53481.24
1041.00	53327.55
1042.00	53168.39
1043.00	52974.12
1044.00	52878.94
1045.00	52836.81
1046.00	52711.20
1047.00	52425.66
1048.00	52205.65
1049.00	52092.52
1050.00	52161.18
1051.00	52238.42
1052.00	52363.25
1053.00	52545.03
1054.00	52654.25
1055.00	52616.02
1056.00	52374.17
1057.00	51945.85
1058.00	51472.28
1059.00	51004.95
1060.00	50730.33
1061.00	50642.17
1062.00	50843.46
1063.00	50969.85
1064.00	51121.20
1065.00	50966.73
1066.00	51116.52
1067.00	51036.16
1068.00	51189.08
1069.00	51219.50
1070.00	51711.80
1071.00	52125.29
1072.00	52541.91
1073.00	52585.60
1074.00	52284.45
1075.00	51758.61
1076.00	51263.19
1077.00	51113.40
1078.00	51018.22
1079.00	51125.88
1080.00	51126.66
1081.00	51287.38
1082.00	51395.04
1083.00	51468.38
1084.00	51629.10
1085.00	51568.24
1086.00	51661.86
1087.00	51484.76
1088.00	51310.00
1089.00	51136.02
1090.00	50967.51
1091.00	50910.55
1092.00	50829.41
1093.00	50803.67
1094.00	50898.07
1095.00	50889.49
1096.00	50910.55
1097.00	50810.69
1098.00	50698.34
1099.00	50420.60
1100.00	50138.96
1101.00	49709.86
1102.00	49466.44
1103.00	49291.68
1104.00	49298.70
1105.00	49376.72
1106.00	49536.66
1107.00	49751.99
1108.00	49922.85
1109.00	50086.68
1110.00	50388.61
1111.00	50621.11
1112.00	50654.65
1113.00	50454.93
1114.00	50209.17
1115.00	49940.79
1116.00	49616.24
1117.00	49280.76
1118.00	48932.80
1119.00	48565.34
1120.00	48367.95
1121.00	48399.94
1122.00	48690.16
1123.00	48873.51
1124.00	49008.48
1125.00	48915.64
1126.00	48791.59
1127.00	48550.51
1128.00	48410.86
1129.00	48193.97
1130.00	47945.09
1131.00	47644.73
1132.00	47163.36
1133.00	46734.26
1134.00	46305.94
1135.00	46362.11
1136.00	46614.89
1137.00	47132.93
1138.00	47628.34
1139.00	48052.76
1140.00	48218.16
1141.00	48383.55
1142.00	48460.01
1143.00	48461.57
1144.00	48455.33
1145.00	48230.64
1146.00	48332.84
1147.00	48096.45
1148.00	48098.79
1149.00	47986.44
1150.00	47854.59
1151.00	47732.89
1152.00	47650.97
1153.00	47565.15
1154.00	47392.73
1155.00	47240.59
1156.00	47098.60
1157.00	46971.43
1158.00	46530.63
1159.00	46276.29
1160.00	46103.09
1161.00	46070.32
1162.00	46040.68
1163.00	45915.07
1164.00	45894.00
1165.00	45919.75
1166.00	45964.22
1167.00	46090.61
1168.00	46380.84
1169.00	46492.40
1170.00	46469.00
1171.00	46202.18
1172.00	46104.65
1173.00	45975.92
1174.00	45868.26
1175.00	45815.99
1176.00	45479.73
1177.00	45127.87
1178.00	44684.73
1179.00	44453.01
1180.00	44445.99
1181.00	44409.32
1182.00	44776.79
1183.00	44910.20
1184.00	45237.09
1185.00	45161.42
1186.00	45253.48
1187.00	45454.76
1188.00	45585.05
1189.00	45691.16
1190.00	45654.49
1191.00	45782.44
1192.00	45473.49
1193.00	45274.54
1194.00	45101.34
1195.00	45435.26
1196.00	45453.20
1197.00	45464.91
1198.00	45373.63
1199.00	45409.51
1200.00	45487.53
1201.00	45575.69
1202.00	45757.47
1203.00	46015.71
1204.00	46112.45
1205.00	46248.21
1206.00	46156.92
1207.00	46265.37
1208.00	46134.30
1209.00	46120.26
1210.00	45904.15
1211.00	45855.78
1212.00	45761.37
1213.00	45741.09
1214.00	45509.38
1215.00	45496.89
