SpectraSuite Data File
++++++++++++++++++++++++++++++++++++
Date: Thu Nov 16 13:32:52 EST 2017
User: cheriyan
Dark Spectrum Present: No
Reference Spectrum Present: No
Number of Sampled Component Spectra: 1
Spectrometers: USB2+H05261
Integration Time (usec): 90000 (USB2+H05261)
Spectra Averaged: 1 (USB2+H05261)
Boxcar Smoothing: 1 (USB2+H05261)
Correct for Electrical Dark: No (USB2+H05261)
Strobe/Lamp Enabled: No (USB2+H05261)
Correct for Detector Non-linearity: No (USB2+H05261)
Correct for Stray Light: No (USB2+H05261)
Number of Pixels in Processed Spectrum: 2048
>>>>>Begin Processed Spectral Data<<<<<
0.00	367.46
1.00	367.46
2.00	351.08
3.00	310.51
4.00	280.08
5.00	263.70
6.00	276.96
7.00	276.96
8.00	267.60
9.00	252.78
10.00	249.66
11.00	273.06
12.00	299.59
13.00	285.55
14.00	282.42
15.00	245.76
16.00	252.00
17.00	262.14
18.00	287.89
19.00	297.25
20.00	291.01
21.00	308.95
22.00	338.60
23.00	762.23
24.00	2380.32
25.00	4175.52
26.00	5570.47
27.00	5717.93
28.00	5556.43
29.00	5369.97
30.00	5121.09
31.00	5093.01
32.00	5074.28
33.00	5175.70
34.00	5115.63
35.00	4996.26
36.00	4806.68
37.00	4656.89
38.00	4599.93
39.00	4649.08
40.00	4749.73
41.00	4862.07
42.00	4862.07
43.00	4877.68
44.00	4908.10
45.00	5115.63
46.00	5356.71
47.00	5629.77
48.00	5766.30
49.00	5792.05
50.00	5745.24
51.00	5709.35
52.00	5764.74
53.00	5804.53
54.00	5930.14
55.00	6144.69
56.00	6433.35
57.00	6763.37
58.00	6991.18
59.00	7151.12
60.00	7265.80
61.00	7346.16
62.00	7245.52
63.00	7046.57
64.00	6683.79
65.00	6466.90
66.00	6242.99
67.00	6076.03
68.00	5969.93
69.00	5971.49
70.00	6168.09
71.00	6404.49
72.00	6641.66
73.00	6872.59
74.00	6990.40
75.00	6956.85
76.00	6744.64
77.00	6467.68
78.00	6197.74
79.00	5894.25
80.00	5650.83
81.00	5365.29
82.00	5124.99
83.00	4887.04
84.00	4702.92
85.00	4596.03
86.00	4467.30
87.00	4435.32
88.00	4471.98
89.00	4655.33
90.00	4879.24
91.00	5188.19
92.00	5593.88
93.00	5994.11
94.00	6303.84
95.00	6484.84
96.00	6552.72
97.00	6498.11
98.00	6357.68
99.00	6191.50
100.00	6136.88
101.00	6169.65
102.00	6329.59
103.00	6472.36
104.00	6569.10
105.00	6609.67
106.00	6562.86
107.00	6537.90
108.00	6487.96
109.00	6528.53
110.00	6494.99
111.00	6573.78
112.00	6579.25
113.00	6630.74
114.00	6589.39
115.00	6733.72
116.00	6991.18
117.00	7378.15
118.00	7759.66
119.00	8074.85
120.00	8326.85
121.00	8383.02
122.00	8423.59
123.00	8468.06
124.00	8596.01
125.00	8762.19
126.00	9004.04
127.00	9352.00
128.00	9599.32
129.00	9576.69
130.00	9357.46
131.00	8986.88
132.00	8627.21
133.00	8135.70
134.00	7606.74
135.00	7026.29
136.00	6275.76
137.00	5541.61
138.00	4874.56
139.00	4649.08
140.00	4809.02
141.00	5280.25
142.00	5980.85
143.00	6820.32
144.00	7660.57
145.00	8447.77
146.00	9004.04
147.00	9488.53
148.00	9732.73
149.00	9902.81
150.00	9964.44
151.00	9777.20
152.00	9388.67
153.00	8614.73
154.00	7756.54
155.00	6822.66
156.00	6132.98
157.00	5811.55
158.00	6074.47
159.00	6790.67
160.00	7828.31
161.00	9075.82
162.00	10169.63
163.00	11190.88
164.00	11779.92
165.00	12212.14
166.00	12530.45
167.00	12808.97
168.00	13053.95
169.00	13266.16
170.00	13507.23
171.00	13736.60
172.00	13826.32
173.00	13902.00
174.00	14043.21
175.00	14104.07
176.00	14088.46
177.00	14182.09
178.00	14492.60
179.00	14809.35
180.00	15056.67
181.00	15131.56
182.00	15231.43
183.00	15339.87
184.00	15477.96
185.00	15484.20
186.00	15418.67
187.00	15429.59
188.00	15339.09
189.00	15108.16
190.00	14854.60
191.00	14936.52
192.00	15282.14
193.00	15625.42
194.00	15807.20
195.00	15559.10
196.00	15147.95
197.00	14902.19
198.00	15040.28
199.00	15291.50
200.00	15390.58
201.00	15376.54
202.00	15359.38
203.00	15359.38
204.00	15195.54
205.00	15119.86
206.00	14907.65
207.00	15034.04
208.00	15126.10
209.00	15326.61
210.00	15470.94
211.00	15396.04
212.00	15355.47
213.00	15354.69
214.00	15702.65
215.00	15985.86
216.00	16343.18
217.00	16646.67
218.00	17060.95
219.00	17325.43
220.00	17422.17
221.00	17289.54
222.00	16910.37
223.00	16404.03
224.00	15903.94
225.00	15388.24
226.00	15209.58
227.00	15293.06
228.00	15747.12
229.00	16221.47
230.00	16781.64
231.00	17356.63
232.00	17887.93
233.00	18267.88
234.00	18420.80
235.00	18491.79
236.00	18578.39
237.00	18634.57
238.00	18508.96
239.00	18294.41
240.00	18156.32
241.00	18086.88
242.00	18119.65
243.00	18237.45
244.00	18547.19
245.00	18832.73
246.00	18965.36
247.00	18781.24
248.00	18724.29
249.00	18722.73
250.00	18983.30
251.00	19045.72
252.00	19036.36
253.00	18866.28
254.00	19005.93
255.00	19339.07
256.00	19822.00
257.00	20189.46
258.00	20421.17
259.00	20501.53
260.00	20386.85
261.00	20072.43
262.00	19701.85
263.00	19455.31
264.00	19393.68
265.00	19396.02
266.00	19424.89
267.00	19557.52
268.00	19711.21
269.00	19662.84
270.00	19616.03
271.00	19800.15
272.00	20202.72
273.00	20489.83
274.00	20367.34
275.00	20130.17
276.00	19844.62
277.00	19690.93
278.00	19571.56
279.00	19752.56
280.00	20318.19
281.00	20916.59
282.00	21453.35
283.00	21643.71
284.00	21685.84
285.00	21592.22
286.00	21563.36
287.00	21397.18
288.00	21090.57
289.00	20586.57
290.00	20049.81
291.00	19464.68
292.00	19163.53
293.00	19436.59
294.00	19899.23
295.00	20351.74
296.00	20519.48
297.00	20510.89
298.00	20620.90
299.00	20556.14
300.00	20656.01
301.00	20445.36
302.00	20290.10
303.00	20319.75
304.00	20179.32
305.00	20222.23
306.00	20095.84
307.00	20144.21
308.00	19896.89
309.00	19745.54
310.00	19906.26
311.00	20341.60
312.00	20433.66
313.00	20301.81
314.00	19672.20
315.00	19144.80
316.00	18720.38
317.00	18750.03
318.00	19172.11
319.00	19383.54
320.00	19867.25
321.00	19857.10
322.00	19910.16
323.00	19576.24
324.00	19306.30
325.00	19168.99
326.00	19005.15
327.00	18887.34
328.00	18395.05
329.00	17714.73
330.00	16851.08
331.00	15969.48
332.00	15246.25
333.00	14743.81
334.00	14603.38
335.00	14860.06
336.00	15531.01
337.00	16681.00
338.00	18317.03
339.00	20213.65
340.00	21738.90
341.00	22385.66
342.00	22002.60
343.00	21377.67
344.00	20806.58
345.00	20947.79
346.00	21326.18
347.00	21945.64
348.00	22339.63
349.00	22237.43
350.00	21506.40
351.00	20438.34
352.00	19787.67
353.00	19779.87
354.00	20220.67
355.00	20825.31
356.00	21484.56
357.00	21975.29
358.00	22189.06
359.00	22362.26
360.00	22522.20
361.00	23040.23
362.00	23423.30
363.00	23896.09
364.00	24109.08
365.00	24279.16
366.00	24222.98
367.00	24027.16
368.00	23581.68
369.00	23185.35
370.00	22903.70
371.00	22771.07
372.00	22675.89
373.00	22338.07
374.00	21846.56
375.00	21461.15
376.00	21209.93
377.00	21211.50
378.00	21547.75
379.00	22068.91
380.00	22738.30
381.00	23375.71
382.00	23807.15
383.00	24144.19
384.00	23999.85
385.00	23663.60
386.00	23578.56
387.00	23729.13
388.00	24377.46
389.00	24886.14
390.00	25493.12
391.00	25894.91
392.00	26249.11
393.00	26536.99
394.00	26867.01
395.00	27135.39
396.00	27261.78
397.00	27435.76
398.00	27566.83
399.00	27889.82
400.00	27722.87
401.00	27604.28
402.00	27374.91
403.00	27716.62
404.00	27975.64
405.00	28097.35
406.00	28184.73
407.00	28146.50
408.00	27942.10
409.00	27813.37
410.00	27855.50
411.00	28124.66
412.00	27752.51
413.00	27029.29
414.00	26274.85
415.00	25803.63
416.00	25852.78
417.00	25903.49
418.00	26398.12
419.00	26682.89
420.00	27126.81
421.00	27534.84
422.00	27996.71
423.00	28499.14
424.00	28758.94
425.00	29009.38
426.00	28869.73
427.00	28607.59
428.00	28489.00
429.00	28453.11
430.00	28603.69
431.00	28481.20
432.00	28433.61
433.00	28361.05
434.00	28442.19
435.00	28574.82
436.00	28686.39
437.00	28834.62
438.00	29247.33
439.00	29702.96
440.00	30352.85
441.00	30667.26
442.00	30887.27
443.00	30747.62
444.00	30628.25
445.00	30564.28
446.00	30384.83
447.00	30263.13
448.00	29983.04
449.00	29899.56
450.00	29642.88
451.00	29244.99
452.00	28673.90
453.00	28050.54
454.00	27638.61
455.00	27543.42
456.00	27854.72
457.00	28462.47
458.00	29055.41
459.00	29485.29
460.00	29697.50
461.00	29772.39
462.00	29782.54
463.00	29509.47
464.00	29249.67
465.00	29016.40
466.00	29098.32
467.00	29525.08
468.00	29869.92
469.00	30300.58
470.00	30569.74
471.00	30937.20
472.00	30989.47
473.00	30920.82
474.00	31028.48
475.00	31361.62
476.00	31549.64
477.00	31812.56
478.00	31866.39
479.00	32038.03
480.00	31541.84
481.00	31209.48
482.00	30539.31
483.00	30192.13
484.00	30235.82
485.00	30611.87
486.00	30995.71
487.00	31006.64
488.00	30916.14
489.00	30902.87
490.00	30661.02
491.00	30593.92
492.00	30710.95
493.00	30970.75
494.00	31217.29
495.00	31209.48
496.00	31630.78
497.00	31933.49
498.00	32185.49
499.00	32293.15
500.00	32037.25
501.00	32301.73
502.00	32173.78
503.00	32480.39
504.00	32388.33
505.00	32558.41
506.00	32669.20
507.00	32840.06
508.00	32797.93
509.00	32862.68
510.00	32818.21
511.00	32767.50
512.00	32592.74
513.00	32552.95
514.00	32297.83
515.00	32057.54
516.00	31776.67
517.00	31674.47
518.00	31519.21
519.00	31264.10
520.00	31555.10
521.00	31591.77
522.00	31838.31
523.00	31891.36
524.00	32403.16
525.00	32672.32
526.00	32427.34
527.00	31976.40
528.00	31363.96
529.00	30938.76
530.00	30735.13
531.00	30771.80
532.00	31066.71
533.00	31290.62
534.00	31614.40
535.00	31841.43
536.00	31670.57
537.00	31476.30
538.00	31498.15
539.00	31796.18
540.00	31897.60
541.00	31788.38
542.00	31811.78
543.00	32089.52
544.00	32137.90
545.00	31920.23
546.00	31344.45
547.00	31117.42
548.00	30899.75
549.00	30955.15
550.00	30826.42
551.00	31001.96
552.00	31065.15
553.00	31236.01
554.00	31531.70
555.00	32177.68
556.00	32712.89
557.00	33212.20
558.00	33694.35
559.00	34143.73
560.00	34375.45
561.00	34131.25
562.00	33846.49
563.00	33383.84
564.00	33075.67
565.00	33063.97
566.00	33305.82
567.00	33438.45
568.00	33624.14
569.00	33549.24
570.00	33987.70
571.00	34280.27
572.00	34749.15
573.00	34742.91
574.00	34718.73
575.00	34722.63
576.00	34847.46
577.00	34706.24
578.00	34773.34
579.00	34431.62
580.00	34607.16
581.00	34462.83
582.00	34646.95
583.00	34494.04
584.00	34835.75
585.00	35198.54
586.00	35920.20
587.00	36136.31
588.00	36533.42
589.00	36839.25
590.00	37265.23
591.00	37754.40
592.00	37943.98
593.00	38036.83
594.00	37936.18
595.00	37815.26
596.00	37951.79
597.00	38124.21
598.00	38641.46
599.00	39173.55
600.00	39693.93
601.00	39785.99
602.00	39800.81
603.00	39744.64
604.00	40009.90
605.00	40331.33
606.00	40469.42
607.00	40758.09
608.00	40876.68
609.00	41244.92
610.00	41349.46
611.00	41635.01
612.00	42043.82
613.00	42545.48
614.00	42755.35
615.00	42706.19
616.00	42573.56
617.00	42525.19
618.00	42647.68
619.00	42678.11
620.00	42819.32
621.00	43053.37
622.00	43303.81
623.00	43735.25
624.00	43714.19
625.00	43577.65
626.00	43288.21
627.00	43431.76
628.00	43637.73
629.00	44038.74
630.00	44506.07
631.00	44403.08
632.00	43527.72
633.00	42504.91
634.00	41434.50
635.00	39854.64
636.00	38078.18
637.00	37195.79
638.00	37699.79
639.00	38687.50
640.00	39952.94
641.00	40976.54
642.00	41917.43
643.00	42628.18
644.00	43579.21
645.00	44520.89
646.00	45487.53
647.00	45972.80
648.00	46511.91
649.00	46729.58
650.00	46819.30
651.00	46600.07
652.00	46092.17
653.00	46138.98
654.00	46496.30
655.00	47614.30
656.00	48629.31
657.00	49492.19
658.00	49798.80
659.00	50022.71
660.00	50163.14
661.00	50266.13
662.00	50173.28
663.00	49925.19
664.00	49774.61
665.00	49680.21
666.00	49939.23
667.00	49909.58
668.00	49455.52
669.00	48574.70
670.00	48051.98
671.00	48082.41
672.00	48651.94
673.00	49647.44
674.00	50659.34
675.00	51391.92
676.00	51631.44
677.00	51455.90
678.00	51095.45
679.00	50820.05
680.00	50881.69
681.00	51279.58
682.00	51792.93
683.00	52414.74
684.00	53011.57
685.00	53380.60
686.00	53620.89
687.00	53600.61
688.00	53522.59
689.00	53134.06
690.00	52797.80
691.00	52605.10
692.00	52715.89
693.00	53049.02
694.00	53495.28
695.00	53796.43
696.00	53997.72
697.00	53922.82
698.00	54127.23
699.00	54297.31
700.00	54539.94
701.00	54557.89
702.00	54386.25
703.00	54030.49
704.00	53499.19
705.00	53024.84
706.00	52944.48
707.00	53134.84
708.00	53499.97
709.00	53889.27
710.00	54318.37
711.00	54628.88
712.00	54752.93
713.00	54757.61
714.00	54685.06
715.00	54506.40
716.00	54102.26
717.00	53769.91
718.00	53373.58
719.00	53268.25
720.00	53145.76
721.00	53076.33
722.00	52971.00
723.00	52870.36
724.00	52901.57
725.00	52741.63
726.00	52779.86
727.00	53024.06
728.00	53396.98
729.00	53809.70
730.00	53984.46
731.00	54252.06
732.00	54362.06
733.00	54570.37
734.00	54479.87
735.00	54290.29
736.00	53727.78
737.00	53286.20
738.00	52869.58
739.00	53030.30
740.00	53408.68
741.00	54048.43
742.00	54327.73
743.00	54490.01
744.00	54593.00
745.00	54964.36
746.00	55366.15
747.00	55767.16
748.00	56002.00
749.00	56111.22
750.00	56023.84
751.00	55824.12
752.00	55671.20
753.00	55423.89
754.00	55328.70
755.00	55221.04
756.00	55258.49
757.00	55060.32
758.00	54813.79
759.00	54398.73
760.00	54116.31
761.00	54065.59
762.00	54277.80
763.00	54657.75
764.00	55040.04
765.00	55399.70
766.00	55854.54
767.00	56191.58
768.00	56299.25
769.00	56151.01
770.00	55903.70
771.00	55746.10
772.00	55641.56
773.00	55641.56
774.00	55720.35
775.00	55682.90
776.00	55648.58
777.00	55632.19
778.00	55828.02
779.00	56054.27
780.00	56291.44
781.00	56534.86
782.00	56709.62
783.00	56735.37
784.00	56531.74
785.00	56055.05
786.00	55664.18
787.00	55434.81
788.00	55408.28
789.00	55496.44
790.00	55453.53
791.00	55500.34
792.00	55423.89
793.00	55291.26
794.00	55108.69
795.00	54834.07
796.00	54828.61
797.00	54914.43
798.00	55119.62
799.00	55229.62
800.00	55217.92
801.00	55325.58
802.00	55427.79
803.00	55675.10
804.00	55817.10
805.00	56041.79
806.00	56015.26
807.00	55757.80
808.00	55110.25
809.00	54142.05
810.00	52820.43
811.00	51348.23
812.00	50195.91
813.00	49645.88
814.00	50133.49
815.00	51373.20
816.00	52874.26
817.00	53712.95
818.00	53778.49
819.00	53050.58
820.00	52364.03
821.00	51985.64
822.00	52307.07
823.00	52987.39
824.00	53563.94
825.00	54113.97
826.00	54376.89
827.00	54915.99
828.00	55314.66
829.00	55729.72
830.00	55884.97
831.00	55863.91
832.00	55775.75
833.00	55505.80
834.00	55396.58
835.00	55432.47
836.00	55669.64
837.00	55980.93
838.00	56148.67
839.00	56201.72
840.00	56293.78
841.00	56322.65
842.00	56394.43
843.00	56173.64
844.00	55873.27
845.00	55501.90
846.00	55173.45
847.00	54986.99
848.00	55037.70
849.00	55320.90
850.00	55736.74
851.00	56212.65
852.00	56593.37
853.00	56927.29
854.00	57141.06
855.00	57221.42
856.00	57167.58
857.00	56958.50
858.00	56754.87
859.00	56583.23
860.00	56512.23
861.00	56525.50
862.00	56732.25
863.00	56810.26
864.00	56630.82
865.00	55984.83
866.00	55139.12
867.00	54200.57
868.00	53343.93
869.00	52712.77
870.00	52485.73
871.00	52661.27
872.00	53133.28
873.00	53840.12
874.00	54522.00
875.00	55119.62
876.00	55495.66
877.00	55700.85
878.00	55807.73
879.00	56083.92
880.00	56405.35
881.00	56779.84
882.00	56921.83
883.00	57020.91
884.00	56886.72
885.00	56590.25
886.00	56225.91
887.00	55964.55
888.00	55891.21
889.00	55931.78
890.00	56183.00
891.00	56432.66
892.00	56786.08
893.00	56892.18
894.00	57041.98
895.00	56992.82
896.00	56872.68
897.00	56679.19
898.00	56497.41
899.00	56371.02
900.00	56161.15
901.00	55833.48
902.00	55330.26
903.00	54672.57
904.00	54144.39
905.00	54078.08
906.00	54341.00
907.00	54784.92
908.00	55098.55
909.00	55608.79
910.00	55749.22
911.00	55759.36
912.00	55412.18
913.00	55399.70
914.00	55378.64
915.00	55519.85
916.00	55569.00
917.00	55697.73
918.00	55924.76
919.00	56087.82
920.00	56410.03
921.00	56594.15
922.00	56802.46
923.00	56689.34
924.00	56381.16
925.00	55977.81
926.00	55604.11
927.00	55226.50
928.00	54670.23
929.00	54411.21
930.00	54361.28
931.00	54709.24
932.00	55104.01
933.00	55416.08
934.00	55629.85
935.00	55566.66
936.00	55593.18
937.00	55625.95
938.00	55523.75
939.00	55497.22
940.00	55288.13
941.00	55250.69
942.00	54939.39
943.00	54657.75
944.00	54407.31
945.00	54217.73
946.00	54094.46
947.00	53844.80
948.00	53758.98
949.00	53532.73
950.00	53467.98
951.00	53169.95
952.00	53134.84
953.00	53160.59
954.00	53495.28
955.00	53777.71
956.00	54093.68
957.00	54309.01
958.00	54573.49
959.00	54603.14
960.00	54431.50
961.00	54159.22
962.00	54016.44
963.00	53951.69
964.00	54046.87
965.00	54013.32
966.00	54107.72
967.00	54140.49
968.00	54366.74
969.00	54585.19
970.00	54892.58
971.00	55159.41
972.00	55316.22
973.00	55088.41
974.00	54707.68
975.00	54497.81
976.00	54425.26
977.00	54589.09
978.00	54428.38
979.00	54344.12
980.00	54227.87
981.00	54443.20
982.00	54571.93
983.00	54522.78
984.00	54343.34
985.00	54167.02
986.00	54041.41
987.00	53969.63
988.00	54185.74
989.00	54206.81
990.00	54160.00
991.00	53625.57
992.00	53400.88
993.00	53137.18
994.00	53265.13
995.00	53306.48
996.00	53510.11
997.00	53870.55
998.00	54244.26
999.00	54540.72
1000.00	54500.15
1001.00	54309.79
1002.00	54105.38
1003.00	53957.15
1004.00	54043.75
1005.00	54051.55
1006.00	54085.10
1007.00	53979.78
1008.00	53912.68
1009.00	53711.39
1010.00	53574.86
1011.00	53453.15
1012.00	53587.35
1013.00	53488.26
1014.00	53469.54
1015.00	53400.10
1016.00	53592.81
1017.00	53871.33
1018.00	54071.84
1019.00	54113.19
1020.00	53948.57
1021.00	53755.08
1022.00	53521.81
1023.00	53200.38
1024.00	53030.30
1025.00	53024.84
1026.00	53257.33
1027.00	53340.03
1028.00	53480.46
1029.00	53432.87
1030.00	53525.71
1031.00	53742.60
1032.00	53952.47
1033.00	54068.72
1034.00	54052.33
1035.00	54063.25
1036.00	54056.23
1037.00	54023.47
1038.00	53944.67
1039.00	53723.88
1040.00	53440.67
1041.00	53296.34
1042.00	53124.70
1043.00	53119.24
1044.00	52986.61
1045.00	52949.94
1046.00	52667.51
1047.00	52459.99
1048.00	52264.94
1049.00	52173.66
1050.00	52165.86
1051.00	52281.33
1052.00	52421.76
1053.00	52603.54
1054.00	52664.39
1055.00	52523.18
1056.00	52250.90
1057.00	51935.71
1058.00	51579.95
1059.00	51184.40
1060.00	50896.51
1061.00	50814.59
1062.00	50912.11
1063.00	51059.57
1064.00	51086.09
1065.00	51087.65
1066.00	51017.44
1067.00	51071.27
1068.00	51109.50
1069.00	51415.33
1070.00	51754.71
1071.00	52181.46
1072.00	52417.86
1073.00	52640.99
1074.00	52440.48
1075.00	52051.95
1076.00	51473.06
1077.00	51196.10
1078.00	51087.65
1079.00	51036.16
1080.00	50965.95
1081.00	50988.57
1082.00	51178.15
1083.00	51413.77
1084.00	51520.65
1085.00	51661.08
1086.00	51696.97
1087.00	51743.78
1088.00	51524.55
1089.00	51333.41
1090.00	51114.96
1091.00	50968.29
1092.00	50920.70
1093.00	50919.13
1094.00	51077.51
1095.00	50914.45
1096.00	50886.37
1097.00	50709.27
1098.00	50677.28
1099.00	50335.56
1100.00	50078.10
1101.00	49836.25
1102.00	49564.74
1103.00	49416.51
1104.00	49324.45
1105.00	49535.88
1106.00	49615.46
1107.00	49939.23
1108.00	50117.11
1109.00	50365.99
1110.00	50483.80
1111.00	50667.14
1112.00	50717.85
1113.00	50556.35
1114.00	50359.75
1115.00	50124.13
1116.00	49911.14
1117.00	49436.80
1118.00	48938.26
1119.00	48494.34
1120.00	48363.27
1121.00	48301.64
1122.00	48443.63
1123.00	48477.18
1124.00	48780.67
1125.00	48803.29
1126.00	48898.47
1127.00	48797.05
1128.00	48660.52
1129.00	48366.39
1130.00	48030.91
1131.00	47494.93
1132.00	47089.24
1133.00	46596.17
1134.00	46542.33
1135.00	46598.51
1136.00	46914.48
1137.00	47192.22
1138.00	47445.00
1139.00	47702.46
1140.00	48043.40
1141.00	48306.32
1142.00	48452.21
1143.00	48357.81
1144.00	48299.30
1145.00	48140.92
1146.00	48208.79
1147.00	48126.10
1148.00	48197.87
1149.00	48002.05
1150.00	47923.25
1151.00	47778.92
1152.00	47705.58
1153.00	47588.55
1154.00	47375.56
1155.00	47157.89
1156.00	46883.27
1157.00	46783.41
1158.00	46525.95
1159.00	46474.46
1160.00	46273.95
1161.00	46121.82
1162.00	45833.15
1163.00	45666.97
1164.00	45774.64
1165.00	45884.64
1166.00	45919.75
1167.00	46028.20
1168.00	46203.74
1169.00	46429.99
1170.00	46171.75
1171.00	46077.35
1172.00	45826.91
1173.00	45943.16
1174.00	45831.59
1175.00	45890.88
1176.00	45617.04
1177.00	45132.55
1178.00	44636.36
1179.00	44319.60
1180.00	44410.88
1181.00	44478.76
1182.00	44757.28
1183.00	44867.29
1184.00	45134.11
1185.00	45242.56
1186.00	45230.85
1187.00	45281.56
1188.00	45419.66
1189.00	45535.12
1190.00	45443.84
1191.00	45460.23
1192.00	45329.16
1193.00	45264.40
1194.00	45250.36
1195.00	45483.63
1196.00	45464.91
1197.00	45422.78
1198.00	45409.51
1199.00	45570.23
1200.00	45622.50
1201.00	45688.82
1202.00	45751.23
1203.00	45886.20
1204.00	45888.54
1205.00	46004.01
1206.00	45852.66
1207.00	46028.98
1208.00	46035.22
1209.00	46114.01
1210.00	46016.49
1211.00	45817.55
1212.00	45876.84
1213.00	45793.36
1214.00	45755.91
1215.00	45654.49
