SpectraSuite Data File
++++++++++++++++++++++++++++++++++++
Date: Thu Nov 16 13:32:48 EST 2017
User: cheriyan
Dark Spectrum Present: No
Reference Spectrum Present: No
Number of Sampled Component Spectra: 1
Spectrometers: USB2+H05261
Integration Time (usec): 90000 (USB2+H05261)
Spectra Averaged: 1 (USB2+H05261)
Boxcar Smoothing: 1 (USB2+H05261)
Correct for Electrical Dark: No (USB2+H05261)
Strobe/Lamp Enabled: No (USB2+H05261)
Correct for Detector Non-linearity: No (USB2+H05261)
Correct for Stray Light: No (USB2+H05261)
Number of Pixels in Processed Spectrum: 2048
>>>>>Begin Processed Spectral Data<<<<<
0.00	463.43
1.00	463.43
2.00	398.67
3.00	353.42
4.00	299.59
5.00	304.27
6.00	279.30
7.00	262.92
8.00	240.30
9.00	243.42
10.00	231.71
11.00	246.54
12.00	241.86
13.00	229.37
14.00	235.61
15.00	236.39
16.00	300.37
17.00	299.59
18.00	300.37
19.00	277.74
20.00	285.55
21.00	312.07
22.00	315.97
23.00	773.16
24.00	2451.32
25.00	4255.87
26.00	5682.82
27.00	5829.49
28.00	5684.38
29.00	5455.01
30.00	5302.09
31.00	5333.30
32.00	5384.01
33.00	5440.97
34.00	5342.66
35.00	5142.94
36.00	4862.85
37.00	4684.97
38.00	4653.77
39.00	4748.17
40.00	4890.94
41.00	4968.18
42.00	4892.50
43.00	4847.25
44.00	4938.53
45.00	5110.17
46.00	5395.72
47.00	5622.75
48.00	5833.40
49.00	5896.59
50.00	5875.52
51.00	5864.60
52.00	5852.12
53.00	5955.88
54.00	6089.29
55.00	6312.42
56.00	6542.58
57.00	6824.22
58.00	7080.12
59.00	7281.41
60.00	7403.89
61.00	7458.51
62.00	7332.12
63.00	7140.97
64.00	6817.20
65.00	6565.20
66.00	6327.25
67.00	6164.19
68.00	6047.94
69.00	6026.88
70.00	6177.45
71.00	6473.14
72.00	6776.63
73.00	7027.85
74.00	7077.78
75.00	7070.76
76.00	6883.52
77.00	6573.00
78.00	6181.35
79.00	5863.82
80.00	5627.43
81.00	5371.53
82.00	5140.60
83.00	4947.11
84.00	4805.12
85.00	4697.46
86.00	4602.27
87.00	4545.32
88.00	4577.31
89.00	4711.50
90.00	4954.13
91.00	5298.19
92.00	5735.87
93.00	6129.08
94.00	6480.94
95.00	6682.23
96.00	6770.39
97.00	6696.27
98.00	6512.93
99.00	6349.09
100.00	6230.51
101.00	6257.03
102.00	6359.24
103.00	6555.06
104.00	6716.56
105.00	6746.98
106.00	6669.75
107.00	6629.18
108.00	6682.23
109.00	6738.40
110.00	6720.46
111.00	6714.22
112.00	6646.34
113.00	6675.99
114.00	6817.20
115.00	7013.03
116.00	7264.24
117.00	7496.74
118.00	7847.82
119.00	8252.73
120.00	8517.21
121.00	8581.18
122.00	8581.96
123.00	8557.00
124.00	8684.17
125.00	8833.18
126.00	9141.35
127.00	9462.79
128.00	9627.40
129.00	9641.45
130.00	9438.60
131.00	9132.77
132.00	8804.32
133.00	8351.81
134.00	7802.57
135.00	7117.57
136.00	6348.31
137.00	5570.47
138.00	4940.09
139.00	4736.46
140.00	4959.60
141.00	5518.98
142.00	6202.42
143.00	7027.07
144.00	7802.57
145.00	8496.14
146.00	9030.57
147.00	9590.74
148.00	9941.04
149.00	10249.21
150.00	10164.95
151.00	9983.16
152.00	9437.82
153.00	8734.88
154.00	7854.84
155.00	6947.49
156.00	6193.06
157.00	5889.57
158.00	6178.23
159.00	6951.39
160.00	8026.48
161.00	9252.92
162.00	10496.52
163.00	11384.37
164.00	11944.53
165.00	12334.62
166.00	12785.57
167.00	13245.87
168.00	13588.37
169.00	13883.28
170.00	13944.13
171.00	13987.82
172.00	14076.76
173.00	14203.15
174.00	14346.70
175.00	14388.05
176.00	14486.36
177.00	14587.00
178.00	14802.33
179.00	15122.20
180.00	15345.33
181.00	15493.57
182.00	15634.00
183.00	15867.27
184.00	15934.37
185.00	15920.32
186.00	15846.21
187.00	15719.82
188.00	15421.79
189.00	15125.32
190.00	15016.10
191.00	15279.02
192.00	15612.15
193.00	15946.85
194.00	15996.78
195.00	15759.61
196.00	15482.64
197.00	15231.43
198.00	15335.19
199.00	15359.38
200.00	15600.45
201.00	15698.75
202.00	15829.04
203.00	15674.57
204.00	15454.56
205.00	15163.55
206.00	14965.39
207.00	15041.06
208.00	15267.31
209.00	15503.71
210.00	15632.44
211.00	15661.30
212.00	15687.05
213.00	15747.12
214.00	16038.91
215.00	16345.52
216.00	16607.66
217.00	16940.80
218.00	17199.04
219.00	17500.97
220.00	17611.75
221.00	17653.88
222.00	17382.38
223.00	16659.15
224.00	16071.68
225.00	15455.34
226.00	15292.28
227.00	15379.66
228.00	15855.57
229.00	16499.22
230.00	17130.38
231.00	17762.33
232.00	18306.89
233.00	18594.00
234.00	18724.29
235.00	18853.80
236.00	19099.55
237.00	19023.09
238.00	18881.88
239.00	18549.53
240.00	18473.07
241.00	18303.77
242.00	18275.68
243.00	18436.40
244.00	18818.69
245.00	19140.90
246.00	19340.63
247.00	19306.30
248.00	19221.26
249.00	19070.68
250.00	19151.82
251.00	19257.15
252.00	19387.44
253.00	19332.82
254.00	19470.92
255.00	19758.80
256.00	20205.06
257.00	20629.48
258.00	20950.14
259.00	21003.19
260.00	20926.73
261.00	20689.56
262.00	20288.54
263.00	19927.32
264.00	19601.21
265.00	19761.14
266.00	19811.85
267.00	20042.79
268.00	20050.59
269.00	20190.24
270.00	20182.44
271.00	20274.50
272.00	20478.13
273.00	20797.22
274.00	20808.14
275.00	20651.33
276.00	20289.32
277.00	20008.46
278.00	19842.28
279.00	19986.61
280.00	20651.33
281.00	21360.51
282.00	21990.89
283.00	22185.16
284.00	22242.11
285.00	22182.04
286.00	22198.42
287.00	21906.63
288.00	21563.36
289.00	20999.29
290.00	20511.67
291.00	19922.64
292.00	19605.89
293.00	19621.49
294.00	20172.30
295.00	20699.70
296.00	20961.06
297.00	20900.98
298.00	20850.27
299.00	20922.05
300.00	21053.12
301.00	20801.90
302.00	20719.20
303.00	20617.00
304.00	20692.68
305.00	20636.50
306.00	20400.11
307.00	20200.38
308.00	20062.29
309.00	20127.83
310.00	20378.26
311.00	20688.00
312.00	20683.31
313.00	20595.15
314.00	19949.17
315.00	19382.76
316.00	18972.38
317.00	19094.87
318.00	19492.76
319.00	19830.58
320.00	20200.38
321.00	20347.84
322.00	20290.10
323.00	19996.76
324.00	19701.07
325.00	19513.05
326.00	19353.11
327.00	19278.99
328.00	18777.34
329.00	18024.47
330.00	17107.76
331.00	16196.51
332.00	15419.45
333.00	14718.85
334.00	14486.36
335.00	14793.75
336.00	15552.08
337.00	16900.23
338.00	18592.44
339.00	20455.50
340.00	21937.84
341.00	22605.67
342.00	22369.28
343.00	21665.56
344.00	21039.08
345.00	21138.94
346.00	21705.35
347.00	22370.06
348.00	22703.98
349.00	22506.59
350.00	21775.56
351.00	20760.55
352.00	20010.80
353.00	20065.41
354.00	20645.87
355.00	21414.34
356.00	22023.66
357.00	22449.64
358.00	22539.36
359.00	22744.55
360.00	22959.09
361.00	23535.65
362.00	23891.41
363.00	24285.40
364.00	24447.68
365.00	24636.48
366.00	24558.46
367.00	24535.84
368.00	24213.62
369.00	23756.44
370.00	23355.43
371.00	23050.38
372.00	22897.46
373.00	22416.09
374.00	21797.41
375.00	21271.57
376.00	20991.48
377.00	21169.37
378.00	21631.23
379.00	22326.37
380.00	23069.10
381.00	23799.35
382.00	24306.46
383.00	24639.60
384.00	24550.66
385.00	24258.87
386.00	23914.03
387.00	23992.83
388.00	24508.53
389.00	25152.96
390.00	25891.01
391.00	26271.73
392.00	26743.74
393.00	27036.31
394.00	27402.21
395.00	27620.66
396.00	27669.81
397.00	27944.44
398.00	28023.23
399.00	28217.50
400.00	28047.42
401.00	27946.00
402.00	27818.83
403.00	28113.73
404.00	28529.57
405.00	28746.46
406.00	28749.58
407.00	28554.54
408.00	28326.72
409.00	28285.37
410.00	28374.31
411.00	28561.56
412.00	28257.29
413.00	27496.61
414.00	26844.38
415.00	26364.57
416.00	26330.25
417.00	26390.32
418.00	26817.86
419.00	27120.57
420.00	27625.34
421.00	28048.20
422.00	28690.29
423.00	29057.75
424.00	29326.91
425.00	29519.62
426.00	29439.26
427.00	29138.89
428.00	28819.80
429.00	28778.45
430.00	28816.68
431.00	28733.20
432.00	28705.89
433.00	28695.75
434.00	28975.83
435.00	29100.66
436.00	29341.74
437.00	29481.39
438.00	29724.02
439.00	30076.66
440.00	30638.39
441.00	31144.73
442.00	31512.19
443.00	31562.12
444.00	31474.74
445.00	31136.93
446.00	30803.79
447.00	30560.37
448.00	30516.68
449.00	30297.45
450.00	30018.15
451.00	29677.21
452.00	29117.82
453.00	28541.27
454.00	28096.57
455.00	28123.10
456.00	28518.65
457.00	29056.19
458.00	29516.50
459.00	29801.26
460.00	29959.64
461.00	30136.74
462.00	30194.47
463.00	29986.94
464.00	29757.57
465.00	29593.73
466.00	29665.51
467.00	30144.54
468.00	30406.68
469.00	30848.26
470.00	31158.77
471.00	31640.14
472.00	31611.28
473.00	31349.92
474.00	31341.33
475.00	31597.23
476.00	32009.95
477.00	32256.48
478.00	32489.76
479.00	32562.31
480.00	32195.63
481.00	31884.34
482.00	31328.07
483.00	30955.15
484.00	30941.88
485.00	31178.28
486.00	31602.69
487.00	31570.71
488.00	31435.74
489.00	31390.48
490.00	31328.85
491.00	31331.19
492.00	31296.86
493.00	31381.12
494.00	31625.32
495.00	31799.30
496.00	32168.32
497.00	32436.70
498.00	32679.34
499.00	32789.34
500.00	32687.14
501.00	32822.11
502.00	32945.38
503.00	33087.37
504.00	33169.29
505.00	33032.76
506.00	33241.07
507.00	33372.14
508.00	33516.47
509.00	33507.11
510.00	33415.83
511.00	33231.71
512.00	33042.12
513.00	32914.95
514.00	32853.32
515.00	32672.32
516.00	32336.84
517.00	32208.89
518.00	32095.77
519.00	31927.25
520.00	32108.25
521.00	32256.48
522.00	32410.96
523.00	32523.30
524.00	32662.18
525.00	32960.20
526.00	32666.86
527.00	32329.82
528.00	31663.55
529.00	31204.80
530.00	30882.59
531.00	31170.47
532.00	31400.63
533.00	31787.60
534.00	31844.55
535.00	32190.95
536.00	32139.46
537.00	32084.06
538.00	31888.24
539.00	32093.43
540.00	32446.85
541.00	32634.87
542.00	32598.98
543.00	32538.13
544.00	32556.85
545.00	32501.46
546.00	32122.29
547.00	31705.68
548.00	31374.10
549.00	31443.54
550.00	31478.64
551.00	31551.20
552.00	31647.94
553.00	31783.69
554.00	32114.49
555.00	32666.86
556.00	33208.30
557.00	33941.67
558.00	34310.69
559.00	34728.87
560.00	34825.61
561.00	34692.98
562.00	34336.44
563.00	33872.23
564.00	33556.26
565.00	33613.99
566.00	33903.44
567.00	33972.88
568.00	34094.58
569.00	34014.23
570.00	34601.70
571.00	35227.40
572.00	35570.68
573.00	35548.06
574.00	35358.47
575.00	35390.46
576.00	35484.08
577.00	35231.30
578.00	35396.70
579.00	35285.92
580.00	35378.76
581.00	35037.82
582.00	35023.00
583.00	35054.98
584.00	35413.09
585.00	35798.49
586.00	36476.47
587.00	36735.49
588.00	36924.29
589.00	37207.50
590.00	37913.56
591.00	38369.18
592.00	38526.78
593.00	38560.33
594.00	38488.55
595.00	38364.50
596.00	38350.46
597.00	38745.23
598.00	39449.73
599.00	40030.96
600.00	40467.86
601.00	40444.46
602.00	40376.58
603.00	40343.03
604.00	40513.89
605.00	40918.81
606.00	41021.79
607.00	41401.74
608.00	41416.56
609.00	41806.65
610.00	41984.53
611.00	42275.54
612.00	42614.91
613.00	42815.42
614.00	42998.76
615.00	43064.30
616.00	43169.62
617.00	43287.43
618.00	43490.27
619.00	43463.75
620.00	43593.26
621.00	43752.41
622.00	44164.35
623.00	44460.04
624.00	44250.95
625.00	44014.55
626.00	43836.67
627.00	44039.52
628.00	44372.66
629.00	44769.77
630.00	45179.36
631.00	45034.25
632.00	44225.20
633.00	43195.37
634.00	41986.09
635.00	40373.46
636.00	38569.69
637.00	37715.39
638.00	37949.45
639.00	39074.46
640.00	40211.96
641.00	41503.94
642.00	42404.27
643.00	43317.07
644.00	44143.28
645.00	45027.23
646.00	45894.78
647.00	46553.26
648.00	47115.76
649.00	47367.76
650.00	47371.66
651.00	47258.54
652.00	46822.42
653.00	46884.83
654.00	47161.01
655.00	48146.38
656.00	49123.16
657.00	49936.89
658.00	50376.13
659.00	50669.48
660.00	50944.10
661.00	51013.54
662.00	50788.06
663.00	50475.21
664.00	50405.78
665.00	50378.47
666.00	50582.88
667.00	50393.29
668.00	50019.59
669.00	49350.20
670.00	48980.39
671.00	48963.23
672.00	49584.25
673.00	50511.88
674.00	51402.07
675.00	51914.64
676.00	52037.13
677.00	52036.35
678.00	51749.24
679.00	51579.95
680.00	51584.63
681.00	51937.27
682.00	52502.12
683.00	53008.45
684.00	53481.24
685.00	53826.86
686.00	54160.78
687.00	54288.73
688.00	54062.47
689.00	53680.97
690.00	53252.65
691.00	53132.50
692.00	53134.06
693.00	53461.74
694.00	53887.71
695.00	54351.92
696.00	54582.85
697.00	54607.04
698.00	54732.65
699.00	54844.21
700.00	55000.25
701.00	54972.94
702.00	54795.84
703.00	54453.34
704.00	53965.73
705.00	53504.65
706.00	53268.25
707.00	53473.44
708.00	53954.81
709.00	54568.03
710.00	54915.21
711.00	55196.85
712.00	55257.71
713.00	55282.67
714.00	55050.96
715.00	54767.76
716.00	54381.57
717.00	54223.97
718.00	53911.12
719.00	53857.29
720.00	53735.58
721.00	53703.59
722.00	53606.07
723.00	53510.89
724.00	53418.05
725.00	53378.26
726.00	53359.53
727.00	53644.30
728.00	53845.58
729.00	54233.33
730.00	54444.76
731.00	54692.86
732.00	54845.77
733.00	55006.49
734.00	54963.58
735.00	54695.98
736.00	54160.78
737.00	53723.88
738.00	53448.47
739.00	53574.86
740.00	53898.64
741.00	54479.09
742.00	54841.09
743.00	55075.93
744.00	55175.01
745.00	55485.52
746.00	55841.28
747.00	56268.82
748.00	56475.57
749.00	56633.16
750.00	56445.92
751.00	56249.31
752.00	56119.02
753.00	55976.25
754.00	55928.66
755.00	55710.21
756.00	55660.28
757.00	55423.11
758.00	55298.28
759.00	55037.70
760.00	54866.06
761.00	54695.98
762.00	54704.56
763.00	55016.63
764.00	55441.83
765.00	55917.74
766.00	56388.97
767.00	56669.05
768.00	56747.07
769.00	56545.00
770.00	56318.75
771.00	56045.69
772.00	56035.55
773.00	55985.61
774.00	56151.79
775.00	56083.14
776.00	56044.13
777.00	56090.94
778.00	56180.66
779.00	56582.45
780.00	56785.30
781.00	57077.86
782.00	57165.24
783.00	57233.90
784.00	56944.45
785.00	56492.73
786.00	56026.96
787.00	55786.67
788.00	55753.12
789.00	55860.79
790.00	56051.15
791.00	56120.59
792.00	56059.73
793.00	55847.52
794.00	55659.50
795.00	55420.76
796.00	55423.89
797.00	55373.17
798.00	55547.93
799.00	55554.18
800.00	55710.21
801.00	55826.46
802.00	56026.18
803.00	56164.28
804.00	56309.39
805.00	56568.41
806.00	56679.97
807.00	56382.73
808.00	55693.05
809.00	54500.93
810.00	53278.39
811.00	51771.87
812.00	50720.19
813.00	50127.25
814.00	50768.56
815.00	52040.25
816.00	53457.06
817.00	54151.41
818.00	54114.75
819.00	53517.13
820.00	52917.17
821.00	52721.35
822.00	53074.77
823.00	53712.95
824.00	54264.54
825.00	54696.76
826.00	54944.86
827.00	55365.37
828.00	55700.07
829.00	56083.92
830.00	56295.35
831.00	56335.91
832.00	56139.31
833.00	55886.53
834.00	55794.47
835.00	55907.60
836.00	56112.00
837.00	56408.47
838.00	56584.79
839.00	56700.26
840.00	56811.82
841.00	56895.30
842.00	56930.41
843.00	56742.39
844.00	56344.50
845.00	55872.49
846.00	55506.58
847.00	55496.44
848.00	55689.93
849.00	56051.15
850.00	56438.12
851.00	56764.23
852.00	57007.65
853.00	57240.92
854.00	57413.34
855.00	57487.46
856.00	57373.55
857.00	57274.47
858.00	57180.85
859.00	57086.45
860.00	57014.67
861.00	57041.98
862.00	57194.11
863.00	57277.59
864.00	57156.66
865.00	56536.42
866.00	55710.21
867.00	54643.71
868.00	53783.17
869.00	53243.29
870.00	53067.75
871.00	53276.05
872.00	53690.33
873.00	54333.20
874.00	55060.32
875.00	55610.35
876.00	55979.37
877.00	56204.06
878.00	56307.05
879.00	56564.51
880.00	56862.53
881.00	57338.44
882.00	57542.07
883.00	57688.74
884.00	57462.49
885.00	57149.64
886.00	56704.94
887.00	56429.54
888.00	56310.17
889.00	56291.44
890.00	56506.77
891.00	56754.87
892.00	57155.10
893.00	57238.58
894.00	57371.99
895.00	57315.82
896.00	57383.69
897.00	57230.78
898.00	57091.13
899.00	56750.97
900.00	56468.54
901.00	56026.96
902.00	55558.08
903.00	55043.16
904.00	54708.46
905.00	54632.00
906.00	54846.55
907.00	55214.80
908.00	55640.00
909.00	56094.84
910.00	56250.88
911.00	56281.30
912.00	55928.66
913.00	55834.26
914.00	55672.76
915.00	55796.81
916.00	55867.03
917.00	56163.49
918.00	56407.69
919.00	56515.36
920.00	56704.94
921.00	56861.75
922.00	57080.99
923.00	57076.30
924.00	56938.21
925.00	56592.59
926.00	56178.32
927.00	55611.13
928.00	55109.47
929.00	54744.35
930.00	54766.98
931.00	55090.75
932.00	55438.71
933.00	55764.04
934.00	55866.25
935.00	55993.42
936.00	56023.84
937.00	56117.46
938.00	56009.80
939.00	55959.87
940.00	55786.67
941.00	55570.56
942.00	55292.82
943.00	54954.22
944.00	54815.35
945.00	54607.04
946.00	54555.55
947.00	54354.26
948.00	54288.73
949.00	54085.88
950.00	54004.74
951.00	53777.71
952.00	53698.91
953.00	53727.00
954.00	53947.01
955.00	54347.24
956.00	54676.47
957.00	54951.10
958.00	55088.41
959.00	55078.27
960.00	54936.27
961.00	54656.19
962.00	54620.30
963.00	54535.26
964.00	54562.57
965.00	54356.60
966.00	54401.85
967.00	54472.85
968.00	54777.90
969.00	54895.70
970.00	55248.35
971.00	55498.00
972.00	55667.30
973.00	55415.30
974.00	55148.48
975.00	55091.53
976.00	55058.76
977.00	55079.05
978.00	54974.50
979.00	54991.67
980.00	54820.03
981.00	54843.43
982.00	54806.76
983.00	54834.85
984.00	54790.38
985.00	54588.31
986.00	54585.97
987.00	54478.31
988.00	54724.07
989.00	54627.32
990.00	54539.94
991.00	54094.46
992.00	53869.77
993.00	53588.91
994.00	53702.81
995.00	53923.60
996.00	54199.79
997.00	54465.83
998.00	54584.41
999.00	54816.13
1000.00	54759.95
1001.00	54730.31
1002.00	54603.14
1003.00	54597.68
1004.00	54665.55
1005.00	54628.88
1006.00	54663.21
1007.00	54561.01
1008.00	54620.30
1009.00	54323.05
1010.00	54216.17
1011.00	53973.53
1012.00	54087.44
1013.00	53998.50
1014.00	53998.50
1015.00	53897.86
1016.00	54026.59
1017.00	54301.21
1018.00	54605.48
1019.00	54693.64
1020.00	54482.99
1021.00	54171.70
1022.00	53840.90
1023.00	53613.09
1024.00	53493.72
1025.00	53479.68
1026.00	53729.34
1027.00	53909.56
1028.00	54090.56
1029.00	53993.04
1030.00	54107.72
1031.00	54277.02
1032.00	54435.40
1033.00	54553.21
1034.00	54499.37
1035.00	54422.92
1036.00	54428.38
1037.00	54340.22
1038.00	54336.32
1039.00	54118.65
1040.00	54053.11
1041.00	53881.47
1042.00	53644.30
1043.00	53445.35
1044.00	53338.47
1045.00	53278.39
1046.00	53120.02
1047.00	52864.90
1048.00	52704.96
1049.00	52583.26
1050.00	52627.73
1051.00	52682.34
1052.00	52945.26
1053.00	53208.18
1054.00	53372.80
1055.00	53219.10
1056.00	53066.97
1057.00	52633.19
1058.00	52103.45
1059.00	51513.63
1060.00	51295.96
1061.00	51254.61
1062.00	51356.03
1063.00	51399.72
1064.00	51554.20
1065.00	51515.97
1066.00	51590.87
1067.00	51474.62
1068.00	51653.28
1069.00	51802.30
1070.00	52199.41
1071.00	52584.04
1072.00	52979.59
1073.00	53099.73
1074.00	52880.50
1075.00	52304.73
1076.00	51887.34
1077.00	51635.34
1078.00	51619.73
1079.00	51604.91
1080.00	51604.91
1081.00	51672.79
1082.00	51810.88
1083.00	51922.44
1084.00	52066.78
1085.00	52249.34
1086.00	52357.78
1087.00	52197.07
1088.00	51862.37
1089.00	51656.40
1090.00	51562.00
1091.00	51515.97
1092.00	51457.46
1093.00	51564.34
1094.00	51784.35
1095.00	51901.38
1096.00	51784.35
1097.00	51605.69
1098.00	51340.43
1099.00	51125.10
1100.00	50749.84
1101.00	50379.25
1102.00	49961.08
1103.00	49898.66
1104.00	49844.83
1105.00	50150.66
1106.00	50325.42
1107.00	50523.58
1108.00	50619.55
1109.00	50695.22
1110.00	50967.51
1111.00	51036.94
1112.00	51046.30
1113.00	51026.02
1114.00	50976.87
1115.00	50741.25
1116.00	50351.94
1117.00	49860.43
1118.00	49578.01
1119.00	49235.51
1120.00	49180.90
1121.00	49028.76
1122.00	49081.81
1123.00	49128.62
1124.00	49363.46
1125.00	49344.73
1126.00	49258.91
1127.00	49020.96
1128.00	48811.09
1129.00	48590.30
1130.00	48319.58
1131.00	47980.20
1132.00	47529.26
1133.00	47257.76
1134.00	47015.12
1135.00	47013.56
1136.00	47170.38
1137.00	47531.60
1138.00	47888.92
1139.00	48137.80
1140.00	48521.65
1141.00	48921.10
1142.00	49200.40
1143.00	49308.85
1144.00	49161.39
1145.00	49061.53
1146.00	49021.74
1147.00	48971.81
1148.00	48814.21
1149.00	48577.04
1150.00	48495.12
1151.00	48421.78
1152.00	48386.67
1153.00	48242.34
1154.00	47994.25
1155.00	47702.46
1156.00	47400.53
1157.00	47324.85
1158.00	47122.79
1159.00	46929.30
1160.00	46620.35
1161.00	46387.86
1162.00	46281.75
1163.00	46152.24
1164.00	46118.70
1165.00	46331.68
1166.00	46448.71
1167.00	46801.35
1168.00	46837.24
1169.00	47067.39
1170.00	46978.45
1171.00	46909.02
1172.00	46702.27
1173.00	46529.07
1174.00	46533.75
1175.00	46323.10
1176.00	46194.37
1177.00	45762.93
1178.00	45606.12
1179.00	45265.96
1180.00	45094.32
1181.00	45056.09
1182.00	45255.82
1183.00	45440.72
1184.00	45553.07
1185.00	45617.04
1186.00	45677.90
1187.00	45979.82
1188.00	46087.49
1189.00	46163.95
1190.00	46207.64
1191.00	46305.16
1192.00	46271.61
1193.00	46014.15
1194.00	45818.33
1195.00	45872.16
1196.00	45985.29
1197.00	46096.85
1198.00	46117.14
1199.00	46131.96
1200.00	46247.43
1201.00	46425.31
1202.00	46467.44
1203.00	46496.30
1204.00	46514.25
1205.00	46603.97
1206.00	46586.02
1207.00	46614.89
1208.00	46574.32
1209.00	46613.33
1210.00	46641.42
1211.00	46579.78
1212.00	46678.86
1213.00	46538.43
1214.00	46415.16
1215.00	46202.18
