SpectraSuite Data File
++++++++++++++++++++++++++++++++++++
Date: Thu Nov 16 13:32:53 EST 2017
User: cheriyan
Dark Spectrum Present: No
Reference Spectrum Present: No
Number of Sampled Component Spectra: 1
Spectrometers: USB2+H05261
Integration Time (usec): 90000 (USB2+H05261)
Spectra Averaged: 1 (USB2+H05261)
Boxcar Smoothing: 1 (USB2+H05261)
Correct for Electrical Dark: No (USB2+H05261)
Strobe/Lamp Enabled: No (USB2+H05261)
Correct for Detector Non-linearity: No (USB2+H05261)
Correct for Stray Light: No (USB2+H05261)
Number of Pixels in Processed Spectrum: 2048
>>>>>Begin Processed Spectral Data<<<<<
0.00	416.62
1.00	416.62
2.00	378.39
3.00	343.28
4.00	304.27
5.00	292.57
6.00	290.23
7.00	274.62
8.00	273.06
9.00	262.14
10.00	262.14
11.00	241.86
12.00	256.68
13.00	258.24
14.00	293.35
15.00	274.62
16.00	288.67
17.00	270.72
18.00	269.16
19.00	280.86
20.00	318.31
21.00	345.62
22.00	337.82
23.00	768.48
24.00	2413.09
25.00	4204.38
26.00	5582.18
27.00	5689.84
28.00	5498.70
29.00	5274.79
30.00	5078.18
31.00	5062.58
32.00	5173.36
33.00	5281.03
34.00	5298.97
35.00	5152.30
36.00	4882.36
37.00	4730.22
38.00	4674.83
39.00	4812.14
40.00	4904.20
41.00	4888.60
42.00	4776.25
43.00	4712.28
44.00	4804.34
45.00	5014.21
46.00	5326.28
47.00	5531.47
48.00	5705.45
49.00	5672.68
50.00	5717.15
51.00	5699.98
52.00	5778.78
53.00	5871.62
54.00	5991.77
55.00	6164.97
56.00	6367.04
57.00	6630.74
58.00	6871.81
59.00	7069.98
60.00	7224.45
61.00	7350.84
62.00	7288.43
63.00	7091.04
64.00	6732.94
65.00	6416.19
66.00	6171.21
67.00	6078.37
68.00	6000.35
69.00	6009.72
70.00	6057.31
71.00	6319.45
72.00	6621.38
73.00	6870.25
74.00	6997.42
75.00	6988.84
76.00	6801.60
77.00	6491.87
78.00	6138.44
79.00	5860.70
80.00	5547.85
81.00	5335.64
82.00	5098.47
83.00	4922.15
84.00	4720.08
85.00	4588.23
86.00	4489.93
87.00	4427.51
88.00	4435.32
89.00	4558.58
90.00	4838.67
91.00	5260.74
92.00	5714.81
93.00	6112.70
94.00	6400.58
95.00	6615.13
96.00	6629.96
97.00	6555.06
98.00	6354.55
99.00	6254.69
100.00	6184.48
101.00	6179.79
102.00	6356.11
103.00	6499.67
104.00	6651.02
105.00	6550.38
106.00	6489.53
107.00	6481.72
108.00	6606.55
109.00	6649.46
110.00	6597.97
111.00	6502.01
112.00	6479.38
113.00	6499.67
114.00	6549.60
115.00	6661.16
116.00	6982.60
117.00	7347.72
118.00	7768.24
119.00	8142.72
120.00	8430.61
121.00	8517.99
122.00	8498.49
123.00	8500.05
124.00	8669.34
125.00	8769.99
126.00	8971.27
127.00	9132.77
128.00	9380.87
129.00	9440.16
130.00	9279.44
131.00	8946.31
132.00	8523.45
133.00	8148.97
134.00	7648.09
135.00	7039.55
136.00	6295.26
137.00	5542.39
138.00	4873.78
139.00	4581.99
140.00	4755.97
141.00	5352.03
142.00	6128.30
143.00	6902.24
144.00	7714.41
145.00	8381.46
146.00	9041.49
147.00	9496.33
148.00	9797.48
149.00	9973.80
150.00	9973.80
151.00	9806.84
152.00	9294.27
153.00	8536.71
154.00	7651.21
155.00	6748.54
156.00	6083.83
157.00	5820.13
158.00	6115.82
159.00	6816.42
160.00	7921.15
161.00	9124.19
162.00	10271.05
163.00	11080.10
164.00	11705.02
165.00	12221.50
166.00	12649.82
167.00	12971.25
168.00	13156.93
169.00	13271.62
170.00	13352.76
171.00	13522.84
172.00	13777.17
173.00	13999.52
174.00	14129.81
175.00	14124.35
176.00	14125.13
177.00	14253.08
178.00	14459.05
179.00	14728.21
180.00	14920.92
181.00	15092.55
182.00	15188.52
183.00	15305.54
184.00	15469.38
185.00	15546.62
186.00	15484.98
187.00	15389.80
188.00	15236.89
189.00	15166.67
190.00	14955.24
191.00	15009.86
192.00	15157.31
193.00	15513.07
194.00	15591.87
195.00	15432.71
196.00	15061.35
197.00	14941.98
198.00	15030.92
199.00	15236.89
200.00	15453.78
201.00	15531.79
202.00	15498.25
203.00	15333.63
204.00	15128.44
205.00	15058.23
206.00	14837.44
207.00	14813.25
208.00	14880.35
209.00	15188.52
210.00	15290.72
211.00	15321.93
212.00	15239.23
213.00	15406.97
214.00	15733.86
215.00	16103.67
216.00	16413.40
217.00	16682.56
218.00	16975.13
219.00	17296.56
220.00	17384.72
221.00	17375.36
222.00	17058.60
223.00	16422.76
224.00	15847.77
225.00	15199.44
226.00	15112.06
227.00	15249.37
228.00	15742.44
229.00	16320.56
230.00	16814.41
231.00	17348.83
232.00	17735.02
233.00	18088.44
234.00	18294.41
235.00	18470.73
236.00	18505.06
237.00	18518.32
238.00	18360.72
239.00	18293.63
240.00	18165.68
241.00	18119.65
242.00	18050.21
243.00	18139.93
244.00	18452.00
245.00	18650.95
246.00	18948.20
247.00	18948.98
248.00	18931.81
249.00	18818.69
250.00	18882.66
251.00	19040.26
252.00	19045.72
253.00	18870.18
254.00	18932.59
255.00	19247.79
256.00	19779.87
257.00	20121.59
258.00	20343.16
259.00	20414.15
260.00	20386.07
261.00	20212.09
262.00	19888.31
263.00	19439.71
264.00	19193.95
265.00	19062.88
266.00	19294.60
267.00	19446.73
268.00	19623.05
269.00	19623.05
270.00	19615.25
271.00	19781.43
272.00	20001.44
273.00	20273.72
274.00	20315.07
275.00	20097.40
276.00	19838.38
277.00	19506.02
278.00	19425.67
279.00	19655.82
280.00	20235.49
281.00	20882.26
282.00	21363.63
283.00	21685.06
284.00	21811.45
285.00	21753.72
286.00	21723.29
287.00	21427.60
288.00	21135.82
289.00	20563.17
290.00	20035.77
291.00	19420.20
292.00	19213.46
293.00	19484.18
294.00	20027.96
295.00	20286.98
296.00	20512.46
297.00	20457.06
298.00	20632.60
299.00	20645.09
300.00	20841.69
301.00	20671.61
302.00	20532.74
303.00	20409.47
304.00	20337.70
305.00	20291.66
306.00	20112.22
307.00	20115.34
308.00	19930.44
309.00	19809.51
310.00	19839.94
311.00	20148.89
312.00	20302.59
313.00	20199.60
314.00	19762.70
315.00	19108.91
316.00	18774.22
317.00	18632.22
318.00	19107.35
319.00	19331.26
320.00	19820.44
321.00	19780.65
322.00	19740.86
323.00	19418.64
324.00	19410.06
325.00	19323.46
326.00	19147.14
327.00	18815.57
328.00	18349.80
329.00	17665.58
330.00	16854.98
331.00	15917.20
332.00	15165.89
333.00	14551.11
334.00	14418.48
335.00	14674.38
336.00	15349.23
337.00	16553.05
338.00	18201.57
339.00	20027.96
340.00	21578.96
341.00	22239.77
342.00	21994.79
343.00	21220.08
344.00	20729.34
345.00	20879.14
346.00	21564.92
347.00	22182.04
348.00	22512.83
349.00	22257.71
350.00	21553.21
351.00	20536.64
352.00	19846.96
353.00	19790.01
354.00	20418.83
355.00	21039.86
356.00	21507.18
357.00	21980.75
358.00	22087.64
359.00	22424.67
360.00	22596.31
361.00	23148.68
362.00	23468.55
363.00	23821.19
364.00	24027.16
365.00	24123.12
366.00	24032.62
367.00	23869.56
368.00	23623.03
369.00	23263.36
370.00	22963.00
371.00	22716.46
372.00	22539.36
373.00	22177.36
374.00	21625.77
375.00	21033.61
376.00	20806.58
377.00	21007.09
378.00	21565.70
379.00	22159.41
380.00	22750.01
381.00	23371.03
382.00	23878.15
383.00	24187.88
384.00	24024.04
385.00	23801.69
386.00	23614.45
387.00	23725.23
388.00	24105.96
389.00	24687.97
390.00	25252.04
391.00	25702.20
392.00	25999.45
393.00	26405.92
394.00	26623.59
395.00	26984.82
396.00	27213.41
397.00	27507.54
398.00	27679.18
399.00	27715.06
400.00	27582.43
401.00	27465.41
402.00	27438.88
403.00	27623.00
404.00	27878.12
405.00	28059.12
406.00	28331.40
407.00	28088.77
408.00	27846.91
409.00	27620.66
410.00	27796.20
411.00	27946.00
412.00	27520.80
413.00	26935.67
414.00	26200.74
415.00	25899.59
416.00	25742.77
417.00	25929.23
418.00	26291.24
419.00	26746.08
420.00	27225.11
421.00	27583.21
422.00	27935.85
423.00	28334.53
424.00	28734.76
425.00	29032.79
426.00	28879.09
427.00	28532.69
428.00	28355.59
429.00	28306.44
430.00	28398.50
431.00	28182.39
432.00	28221.40
433.00	28177.71
434.00	28367.29
435.00	28490.56
436.00	28662.98
437.00	28961.79
438.00	29205.98
439.00	29578.13
440.00	30150.78
441.00	30714.07
442.00	31078.41
443.00	30917.70
444.00	30716.41
445.00	30529.17
446.00	30286.53
447.00	30174.97
448.00	30050.92
449.00	29858.21
450.00	29515.72
451.00	29062.43
452.00	28517.09
453.00	27924.15
454.00	27617.54
455.00	27650.31
456.00	27949.90
457.00	28325.16
458.00	28765.96
459.00	29066.33
460.00	29438.48
461.00	29638.98
462.00	29775.52
463.00	29520.40
464.00	29448.62
465.00	29233.29
466.00	29294.14
467.00	29428.34
468.00	29734.95
469.00	30068.86
470.00	30477.68
471.00	30834.22
472.00	30946.56
473.00	30884.93
474.00	31030.04
475.00	31253.95
476.00	31517.65
477.00	31779.01
478.00	31922.57
479.00	32021.65
480.00	31631.56
481.00	31429.49
482.00	30874.79
483.00	30421.50
484.00	30385.61
485.00	30565.84
486.00	31016.00
487.00	30966.07
488.00	31080.75
489.00	31127.56
490.00	30970.75
491.00	30830.32
492.00	30878.69
493.00	31056.57
494.00	31108.84
495.00	31053.45
496.00	31301.54
497.00	31567.59
498.00	31956.11
499.00	32051.30
500.00	32066.12
501.00	32099.67
502.00	32227.62
503.00	32428.90
504.00	32542.81
505.00	32525.64
506.00	32634.09
507.00	32773.74
508.00	32938.36
509.00	32925.10
510.00	32914.17
511.00	32842.40
512.00	32783.88
513.00	32604.44
514.00	32410.18
515.00	32332.94
516.00	32106.69
517.00	31867.95
518.00	31608.15
519.00	31253.95
520.00	31466.94
521.00	31403.75
522.00	31781.35
523.00	31995.90
524.00	32398.48
525.00	32633.31
526.00	32118.39
527.00	31743.91
528.00	31023.02
529.00	30739.82
530.00	30590.80
531.00	30695.35
532.00	31016.78
533.00	31342.89
534.00	31484.89
535.00	31637.02
536.00	31310.91
537.00	31254.73
538.00	31300.76
539.00	31517.65
540.00	31719.72
541.00	31769.65
542.00	31810.22
543.00	31889.80
544.00	31672.91
545.00	31642.48
546.00	31255.51
547.00	31161.89
548.00	30909.11
549.00	31170.47
550.00	31097.92
551.00	31251.61
552.00	31103.38
553.00	31336.65
554.00	31495.03
555.00	32027.89
556.00	32403.94
557.00	33031.98
558.00	33519.59
559.00	33950.25
560.00	34026.71
561.00	33876.13
562.00	33528.17
563.00	33302.70
564.00	33010.92
565.00	33072.55
566.00	33234.83
567.00	33199.72
568.00	33337.03
569.00	33243.41
570.00	33881.60
571.00	34547.87
572.00	35048.74
573.00	35011.29
574.00	34763.20
575.00	34657.09
576.00	34826.39
577.00	34920.01
578.00	35006.61
579.00	34751.49
580.00	34620.42
581.00	34579.07
582.00	34763.98
583.00	34711.70
584.00	34821.71
585.00	35152.51
586.00	35913.96
587.00	36012.26
588.00	36318.87
589.00	36581.79
590.00	37326.86
591.00	37692.77
592.00	38038.39
593.00	38088.32
594.00	37871.43
595.00	37569.50
596.00	37604.61
597.00	38004.84
598.00	38609.48
599.00	39273.41
600.00	39833.58
601.00	39971.67
602.00	39898.33
603.00	39837.48
604.00	39983.37
605.00	40366.44
606.00	40380.48
607.00	40492.05
608.00	40668.37
609.00	41078.74
610.00	41363.51
611.00	41400.96
612.00	41696.64
613.00	42040.70
614.00	42408.95
615.00	42350.43
616.00	42259.93
617.00	42260.71
618.00	42632.08
619.00	42860.67
620.00	43183.66
621.00	43267.14
622.00	43549.57
623.00	43724.33
624.00	43747.73
625.00	43391.19
626.00	43148.56
627.00	43266.36
628.00	43506.66
629.00	43891.29
630.00	44308.68
631.00	44195.56
632.00	43381.05
633.00	42341.07
634.00	41191.09
635.00	39707.97
636.00	38066.47
637.00	37386.16
638.00	37858.95
639.00	38868.50
640.00	39960.75
641.00	40907.10
642.00	41758.28
643.00	42595.41
644.00	43557.37
645.00	44416.35
646.00	45303.41
647.00	45946.28
648.00	46618.01
649.00	46802.13
650.00	46589.92
651.00	46407.36
652.00	46051.60
653.00	46135.08
654.00	46456.51
655.00	47466.06
656.00	48476.40
657.00	49361.90
658.00	49822.20
659.00	50202.93
660.00	50352.72
661.00	50438.54
662.00	50271.59
663.00	50052.36
664.00	49908.80
665.00	49919.73
666.00	50064.06
667.00	49936.11
668.00	49411.83
669.00	48670.66
670.00	48158.08
671.00	48250.92
672.00	48799.39
673.00	49808.16
674.00	50717.07
675.00	51382.56
676.00	51513.63
677.00	51574.48
678.00	51233.55
679.00	51167.23
680.00	51072.83
681.00	51386.46
682.00	51902.94
683.00	52520.06
684.00	53136.40
685.00	53431.31
686.00	53639.62
687.00	53684.87
688.00	53576.42
689.00	53151.23
690.00	52773.62
691.00	52530.98
692.00	52670.64
693.00	53019.38
694.00	53570.96
695.00	53934.52
696.00	53994.60
697.00	53889.27
698.00	54071.06
699.00	54225.53
700.00	54384.69
701.00	54413.55
702.00	54312.91
703.00	54074.18
704.00	53500.75
705.00	53046.68
706.00	52876.60
707.00	53126.26
708.00	53574.08
709.00	53986.02
710.00	54345.68
711.00	54699.10
712.00	54894.14
713.00	54928.47
714.00	54721.72
715.00	54406.53
716.00	53920.48
717.00	53741.82
718.00	53336.91
719.00	53319.74
720.00	53159.03
721.00	53249.53
722.00	53038.88
723.00	52900.79
724.00	52863.34
725.00	52853.98
726.00	52871.92
727.00	53108.32
728.00	53443.01
729.00	53774.59
730.00	53961.05
731.00	54137.37
732.00	54380.79
733.00	54529.02
734.00	54507.18
735.00	54168.58
736.00	53589.69
737.00	53082.57
738.00	52878.16
739.00	53108.32
740.00	53540.53
741.00	54047.65
742.00	54336.32
743.00	54511.86
744.00	54655.41
745.00	54930.03
746.00	55177.35
747.00	55518.29
748.00	55785.89
749.00	56183.78
750.00	56117.46
751.00	55844.40
752.00	55554.96
753.00	55412.18
754.00	55348.21
755.00	55176.57
756.00	55158.62
757.00	55070.46
758.00	54897.27
759.00	54491.57
760.00	54142.83
761.00	53997.72
762.00	54206.03
763.00	54624.20
764.00	55086.85
765.00	55392.68
766.00	55807.73
767.00	56112.78
768.00	56263.36
769.00	56186.90
770.00	55976.25
771.00	55758.58
772.00	55646.24
773.00	55538.57
774.00	55579.14
775.00	55437.93
776.00	55433.25
777.00	55533.89
778.00	55761.70
779.00	56147.11
780.00	56254.78
781.00	56579.33
782.00	56630.04
783.00	56675.29
784.00	56438.12
785.00	56023.06
786.00	55681.34
787.00	55389.56
788.00	55406.72
789.00	55473.82
790.00	55550.27
791.00	55483.18
792.00	55425.45
793.00	55316.22
794.00	55302.96
795.00	55032.24
796.00	54962.80
797.00	54962.80
798.00	55203.88
799.00	55208.56
800.00	55285.79
801.00	55394.24
802.00	55706.31
803.00	55784.33
804.00	55953.63
805.00	56076.90
806.00	56181.44
807.00	55879.51
808.00	55184.37
809.00	53996.94
810.00	52672.20
811.00	51170.35
812.00	50083.56
813.00	49401.69
814.00	49934.55
815.00	51262.41
816.00	52768.16
817.00	53638.84
818.00	53592.03
819.00	53072.43
820.00	52379.63
821.00	52125.29
822.00	52403.03
823.00	53060.72
824.00	53685.65
825.00	54234.89
826.00	54600.02
827.00	54960.46
828.00	55266.29
829.00	55611.13
830.00	55753.12
831.00	55812.41
832.00	55665.74
833.00	55388.78
834.00	55314.66
835.00	55392.68
836.00	55802.27
837.00	56071.43
838.00	56201.72
839.00	56204.84
840.00	56268.82
841.00	56321.09
842.00	56469.33
843.00	56218.89
844.00	55852.20
845.00	55370.05
846.00	55123.52
847.00	55072.03
848.00	55132.88
849.00	55442.61
850.00	55753.12
851.00	56145.55
852.00	56402.23
853.00	56726.00
854.00	56924.17
855.00	57084.11
856.00	57077.86
857.00	56916.37
858.00	56729.90
859.00	56552.02
860.00	56513.02
861.00	56438.90
862.00	56554.36
863.00	56645.65
864.00	56473.23
865.00	55944.26
866.00	55072.81
867.00	54201.35
868.00	53333.79
869.00	52722.91
870.00	52456.87
871.00	52663.61
872.00	53128.60
873.00	53868.99
874.00	54544.62
875.00	55140.68
876.00	55441.05
877.00	55634.53
878.00	55786.67
879.00	56026.18
880.00	56365.56
881.00	56737.71
882.00	57037.30
883.00	57128.58
884.00	56946.01
885.00	56594.15
886.00	56186.90
887.00	55919.30
888.00	55804.61
889.00	55956.75
890.00	56151.79
891.00	56471.67
892.00	56694.80
893.00	56886.72
894.00	56921.05
895.00	56896.08
896.00	56864.10
897.00	56712.74
898.00	56545.78
899.00	56334.35
900.00	56091.72
901.00	55691.49
902.00	55164.09
903.00	54631.22
904.00	54203.69
905.00	54169.36
906.00	54335.54
907.00	54711.58
908.00	55094.65
909.00	55621.27
910.00	55824.12
911.00	55801.49
912.00	55448.07
913.00	55319.34
914.00	55186.71
915.00	55303.74
916.00	55372.39
917.00	55593.18
918.00	55784.33
919.00	55988.74
920.00	56225.91
921.00	56442.80
922.00	56656.57
923.00	56633.94
924.00	56351.52
925.00	55922.42
926.00	55495.66
927.00	55037.70
928.00	54586.75
929.00	54329.30
930.00	54347.24
931.00	54569.59
932.00	54849.67
933.00	55137.56
934.00	55367.71
935.00	55403.60
936.00	55511.27
937.00	55512.83
938.00	55548.71
939.00	55391.12
940.00	55301.40
941.00	55045.50
942.00	54865.28
943.00	54582.07
944.00	54405.75
945.00	54205.25
946.00	54073.40
947.00	53961.05
948.00	53818.28
949.00	53567.84
950.00	53364.21
951.00	53237.83
952.00	53187.11
953.00	53230.02
954.00	53375.92
955.00	53717.64
956.00	54068.72
957.00	54352.70
958.00	54475.19
959.00	54471.29
960.00	54394.05
961.00	54264.54
962.00	54202.91
963.00	54140.49
964.00	54160.00
965.00	54084.32
966.00	53938.43
967.00	54011.76
968.00	54211.49
969.00	54507.96
970.00	54821.59
971.00	55051.74
972.00	55130.54
973.00	54884.78
974.00	54668.67
975.00	54636.69
976.00	54643.71
977.00	54623.42
978.00	54488.45
979.00	54281.70
980.00	54193.54
981.00	54208.37
982.00	54338.66
983.00	54260.64
984.00	54189.64
985.00	54093.68
986.00	54093.68
987.00	54110.06
988.00	54290.29
989.00	54142.05
990.00	54087.44
991.00	53595.15
992.00	53492.94
993.00	53113.00
994.00	53325.21
995.00	53512.45
996.00	53801.89
997.00	53861.19
998.00	54003.96
999.00	54145.17
1000.00	54301.99
1001.00	54250.50
1002.00	54273.90
1003.00	54050.77
1004.00	54014.88
1005.00	53964.17
1006.00	54119.43
1007.00	54053.89
1008.00	53940.77
1009.00	53710.61
1010.00	53623.23
1011.00	53508.55
1012.00	53580.32
1013.00	53352.51
1014.00	53324.43
1015.00	53340.03
1016.00	53619.33
1017.00	53925.94
1018.00	54042.19
1019.00	54061.69
1020.00	53925.16
1021.00	53740.26
1022.00	53533.51
1023.00	53086.47
1024.00	52903.13
1025.00	52935.90
1026.00	53285.42
1027.00	53446.13
1028.00	53581.88
1029.00	53451.59
1030.00	53439.89
1031.00	53603.73
1032.00	53804.24
1033.00	54030.49
1034.00	53883.81
1035.00	53885.37
1036.00	53874.45
1037.00	53837.00
1038.00	53804.23
1039.00	53537.41
1040.00	53495.28
1041.00	53304.92
1042.00	53131.72
1043.00	53052.92
1044.00	53027.96
1045.00	53062.29
1046.00	52781.42
1047.00	52392.89
1048.00	52112.03
1049.00	51996.56
1050.00	52129.97
1051.00	52317.99
1052.00	52589.50
1053.00	52793.12
1054.00	52807.95
1055.00	52620.70
1056.00	52384.31
1057.00	52069.90
1058.00	51643.92
1059.00	50964.38
1060.00	50621.89
1061.00	50522.80
1062.00	50778.70
1063.00	50891.05
1064.00	51065.81
1065.00	51120.42
1066.00	51099.36
1067.00	51087.65
1068.00	51190.64
1069.00	51375.54
1070.00	51714.92
1071.00	52026.99
1072.00	52413.18
1073.00	52543.47
1074.00	52381.97
1075.00	51894.36
1076.00	51376.32
1077.00	50955.80
1078.00	50905.87
1079.00	50869.20
1080.00	51119.64
1081.00	51194.54
1082.00	51340.43
1083.00	51473.84
1084.00	51611.93
1085.00	51693.85
1086.00	51663.42
1087.00	51642.36
1088.00	51446.54
1089.00	51310.78
1090.00	51003.39
1091.00	50898.85
1092.00	50775.58
1093.00	50880.91
1094.00	51018.22
1095.00	51117.30
1096.00	51107.94
1097.00	50991.69
1098.00	50820.83
1099.00	50578.20
1100.00	50235.70
1101.00	49817.52
1102.00	49428.21
1103.00	49293.24
1104.00	49159.05
1105.00	49301.82
1106.00	49433.67
1107.00	49751.21
1108.00	50012.57
1109.00	50235.70
1110.00	50500.96
1111.00	50454.93
1112.00	50536.07
1113.00	50329.32
1114.00	50246.62
1115.00	49976.68
1116.00	49656.81
1117.00	49244.87
1118.00	48898.47
1119.00	48669.10
1120.00	48573.92
1121.00	48325.04
1122.00	48378.87
1123.00	48484.98
1124.00	48824.36
1125.00	48884.43
1126.00	48652.72
1127.00	48491.22
1128.00	48273.55
1129.00	48113.61
1130.00	47742.25
1131.00	47295.21
1132.00	46962.07
1133.00	46438.57
1134.00	46294.24
1135.00	46323.10
1136.00	46616.45
1137.00	47030.72
1138.00	47445.78
1139.00	47929.49
1140.00	48080.06
1141.00	48260.29
1142.00	48342.99
1143.00	48520.87
1144.00	48478.74
1145.00	48329.72
1146.00	48255.60
1147.00	48087.87
1148.00	48082.41
1149.00	47907.65
1150.00	47846.79
1151.00	47759.41
1152.00	47650.97
1153.00	47609.62
1154.00	47317.83
1155.00	47097.04
1156.00	46815.40
1157.00	46781.85
1158.00	46570.42
1159.00	46376.15
1160.00	46074.23
1161.00	45923.65
1162.00	45894.00
1163.00	45842.51
1164.00	45802.72
1165.00	45737.19
1166.00	45690.38
1167.00	45880.74
1168.00	46181.11
1169.00	46463.53
1170.00	46305.94
1171.00	46128.06
1172.00	45841.73
1173.00	45833.15
1174.00	45737.19
1175.00	45688.04
1176.00	45485.19
1177.00	44954.67
1178.00	44530.25
1179.00	44204.92
1180.00	44200.24
1181.00	44392.16
1182.00	44623.09
1183.00	44796.29
1184.00	44921.90
1185.00	45103.68
1186.00	45302.63
1187.00	45456.32
1188.00	45427.46
1189.00	45441.50
1190.00	45418.88
1191.00	45450.08
1192.00	45415.76
1193.00	45315.89
1194.00	45237.09
1195.00	45411.07
1196.00	45437.60
1197.00	45599.10
1198.00	45517.96
1199.00	45678.68
1200.00	45521.86
1201.00	45533.56
1202.00	45500.79
1203.00	45776.98
1204.00	45835.49
1205.00	45954.08
1206.00	45862.80
1207.00	45972.80
1208.00	45940.82
1209.00	46000.11
1210.00	45936.91
1211.00	45822.23
1212.00	45673.99
1213.00	45577.25
1214.00	45557.75
1215.00	45632.64
