SpectraSuite Data File
++++++++++++++++++++++++++++++++++++
Date: Thu Nov 16 13:32:49 EST 2017
User: cheriyan
Dark Spectrum Present: No
Reference Spectrum Present: No
Number of Sampled Component Spectra: 1
Spectrometers: USB2+H05261
Integration Time (usec): 90000 (USB2+H05261)
Spectra Averaged: 1 (USB2+H05261)
Boxcar Smoothing: 1 (USB2+H05261)
Correct for Electrical Dark: No (USB2+H05261)
Strobe/Lamp Enabled: No (USB2+H05261)
Correct for Detector Non-linearity: No (USB2+H05261)
Correct for Stray Light: No (USB2+H05261)
Number of Pixels in Processed Spectrum: 2048
>>>>>Begin Processed Spectral Data<<<<<
0.00	416.62
1.00	416.62
2.00	358.88
3.00	288.67
4.00	238.73
5.00	241.08
6.00	262.14
7.00	259.80
8.00	276.18
9.00	276.96
10.00	279.30
11.00	262.14
12.00	246.54
13.00	234.83
14.00	219.23
15.00	250.44
16.00	257.46
17.00	279.30
18.00	275.40
19.00	291.79
20.00	314.41
21.00	305.83
22.00	308.17
23.00	733.37
24.00	2385.79
25.00	4173.96
26.00	5587.64
27.00	5742.11
28.00	5575.94
29.00	5403.52
30.00	5188.19
31.00	5174.14
32.00	5185.07
33.00	5233.44
34.00	5195.21
35.00	5048.54
36.00	4929.95
37.00	4777.81
38.00	4709.16
39.00	4763.77
40.00	4912.00
41.00	4946.33
42.00	4855.83
43.00	4787.96
44.00	4925.27
45.00	5213.15
46.00	5562.67
47.00	5704.67
48.00	5817.01
49.00	5801.41
50.00	5870.84
51.00	5854.46
52.00	5927.02
53.00	6008.16
54.00	6101.78
55.00	6256.25
56.00	6445.84
57.00	6796.92
58.00	7058.28
59.00	7342.26
60.00	7448.36
61.00	7442.90
62.00	7320.42
63.00	7074.66
64.00	6846.07
65.00	6536.34
66.00	6289.02
67.00	6109.58
68.00	6033.12
69.00	6074.47
70.00	6232.85
71.00	6452.08
72.00	6750.89
73.00	6938.91
74.00	7077.00
75.00	6925.65
76.00	6790.67
77.00	6532.44
78.00	6321.79
79.00	5953.54
80.00	5633.67
81.00	5318.48
82.00	5190.53
83.00	5028.25
84.00	4875.34
85.00	4712.28
86.00	4628.80
87.00	4633.48
88.00	4635.82
89.00	4728.66
90.00	4912.78
91.00	5248.26
92.00	5664.88
93.00	6122.84
94.00	6459.10
95.00	6656.48
96.00	6675.99
97.00	6599.53
98.00	6438.81
99.00	6284.34
100.00	6151.71
101.00	6188.38
102.00	6360.02
103.00	6543.36
104.00	6602.65
105.00	6628.40
106.00	6638.54
107.00	6657.26
108.00	6648.68
109.00	6630.74
110.00	6665.85
111.00	6653.36
112.00	6699.39
113.00	6642.44
114.00	6687.69
115.00	6796.92
116.00	7092.60
117.00	7501.42
118.00	7847.82
119.00	8227.76
120.00	8391.60
121.00	8555.44
122.00	8589.77
123.00	8603.81
124.00	8721.62
125.00	8866.73
126.00	9124.19
127.00	9392.57
128.00	9639.11
129.00	9689.04
130.00	9488.53
131.00	9146.81
132.00	8729.42
133.00	8304.22
134.00	7721.43
135.00	7059.84
136.00	6212.56
137.00	5493.24
138.00	4881.58
139.00	4725.54
140.00	4876.90
141.00	5497.14
142.00	6202.42
143.00	7014.59
144.00	7693.34
145.00	8464.94
146.00	9071.92
147.00	9667.19
148.00	9948.06
149.00	10118.14
150.00	10065.08
151.00	9789.68
152.00	9285.69
153.00	8588.21
154.00	7759.66
155.00	6907.70
156.00	6182.92
157.00	5924.68
158.00	6218.80
159.00	6960.75
160.00	8066.27
161.00	9270.86
162.00	10509.79
163.00	11344.58
164.00	11921.91
165.00	12342.43
166.00	12755.92
167.00	13139.77
168.00	13390.20
169.00	13630.50
170.00	13784.20
171.00	13918.39
172.00	13924.63
173.00	13982.36
174.00	14097.83
175.00	14168.04
176.00	14269.47
177.00	14391.17
178.00	14713.39
179.00	14977.87
180.00	15193.20
181.00	15428.03
182.00	15593.43
183.00	15652.72
184.00	15683.15
185.00	15714.36
186.00	15629.32
187.00	15540.38
188.00	15343.77
189.00	15262.63
190.00	15156.53
191.00	15324.27
192.00	15566.12
193.00	15868.83
194.00	15905.50
195.00	15688.61
196.00	15328.95
197.00	15186.96
198.00	15310.22
199.00	15462.36
200.00	15602.01
201.00	15626.98
202.00	15665.99
203.00	15545.84
204.00	15371.86
205.00	15186.18
206.00	14926.38
207.00	14963.82
208.00	15158.87
209.00	15504.49
210.00	15625.42
211.00	15528.67
212.00	15415.55
213.00	15560.66
214.00	15907.06
215.00	16269.84
216.00	16545.25
217.00	16851.08
218.00	17217.76
219.00	17615.65
220.00	17707.71
221.00	17602.39
222.00	17180.31
223.00	16596.74
224.00	16059.20
225.00	15463.92
226.00	15155.75
227.00	15290.72
228.00	15764.29
229.00	16416.52
230.00	16944.70
231.00	17507.21
232.00	18071.28
233.00	18377.89
234.00	18551.87
235.00	18664.21
236.00	18776.56
237.00	18859.26
238.00	18672.79
239.00	18535.48
240.00	18400.51
241.00	18354.48
242.00	18317.03
243.00	18308.45
244.00	18688.40
245.00	18895.14
246.00	19176.79
247.00	19083.95
248.00	19090.19
249.00	18980.96
250.00	19110.47
251.00	19268.07
252.00	19411.62
253.00	19313.32
254.00	19445.95
255.00	19520.07
256.00	19893.77
257.00	20258.12
258.00	20670.83
259.00	20866.66
260.00	20767.57
261.00	20499.19
262.00	20130.95
263.00	19768.94
264.00	19565.32
265.00	19431.13
266.00	19555.18
267.00	19707.31
268.00	19911.72
269.00	19886.75
270.00	19935.90
271.00	20049.81
272.00	20472.67
273.00	20733.25
274.00	20725.44
275.00	20397.77
276.00	20141.09
277.00	19843.84
278.00	19713.55
279.00	19910.16
280.00	20520.26
281.00	21113.97
282.00	21671.80
283.00	21855.92
284.00	21994.01
285.00	21891.03
286.00	21866.06
287.00	21661.66
288.00	21284.05
289.00	20829.21
290.00	20223.01
291.00	19773.63
292.00	19552.84
293.00	19710.43
294.00	20159.03
295.00	20482.03
296.00	20771.47
297.00	20658.35
298.00	20801.90
299.00	20866.66
300.00	21096.03
301.00	20815.16
302.00	20724.66
303.00	20497.63
304.00	20512.45
305.00	20412.59
306.00	20244.07
307.00	20182.44
308.00	20038.89
309.00	20047.47
310.00	20153.57
311.00	20543.66
312.00	20745.73
313.00	20652.89
314.00	19929.66
315.00	19313.32
316.00	18988.77
317.00	19080.05
318.00	19424.89
319.00	19729.94
320.00	20137.97
321.00	20225.35
322.00	19999.10
323.00	19553.62
324.00	19301.62
325.00	19187.71
326.00	19184.59
327.00	18931.03
328.00	18510.52
329.00	17763.11
330.00	16974.35
331.00	16060.76
332.00	15323.49
333.00	14850.70
334.00	14764.88
335.00	15121.42
336.00	15720.60
337.00	16861.22
338.00	18505.84
339.00	20440.68
340.00	21980.75
341.00	22543.26
342.00	22136.79
343.00	21498.60
344.00	20957.16
345.00	21081.21
346.00	21599.24
347.00	22211.68
348.00	22584.61
349.00	22359.14
350.00	21683.50
351.00	20751.97
352.00	20085.70
353.00	20024.84
354.00	20572.53
355.00	21271.57
356.00	21958.91
357.00	22345.87
358.00	22430.91
359.00	22569.79
360.00	22658.73
361.00	23275.85
362.00	23702.61
363.00	24279.16
364.00	24552.22
365.00	24611.51
366.00	24520.23
367.00	24294.76
368.00	24140.29
369.00	23648.77
370.00	23307.83
371.00	23019.95
372.00	22938.81
373.00	22485.53
374.00	21794.29
375.00	21272.35
376.00	20980.56
377.00	21096.81
378.00	21556.33
379.00	22264.74
380.00	23166.62
381.00	23811.05
382.00	24323.63
383.00	24435.97
384.00	24301.00
385.00	24034.18
386.00	23860.20
387.00	24066.17
388.00	24423.49
389.00	25031.25
390.00	25580.50
391.00	26037.68
392.00	26369.26
393.00	26698.49
394.00	27172.06
395.00	27371.00
396.00	27565.27
397.00	27630.80
398.00	27908.55
399.00	28090.33
400.00	27957.70
401.00	27842.23
402.00	27755.63
403.00	28006.07
404.00	28268.99
405.00	28348.57
406.00	28509.29
407.00	28468.72
408.00	28315.80
409.00	28263.53
410.00	28433.61
411.00	28503.82
412.00	28006.07
413.00	27182.20
414.00	26463.66
415.00	26203.08
416.00	26180.45
417.00	26235.06
418.00	26526.07
419.00	26891.19
420.00	27532.50
421.00	27938.19
422.00	28288.49
423.00	28553.76
424.00	28918.10
425.00	29295.71
426.00	29301.95
427.00	28977.39
428.00	28642.70
429.00	28612.27
430.00	28765.96
431.00	28752.70
432.00	28787.03
433.00	28657.52
434.00	28776.11
435.00	28875.19
436.00	29069.45
437.00	29315.99
438.00	29697.50
439.00	30101.63
440.00	30612.65
441.00	31003.52
442.00	31285.94
443.00	31182.96
444.00	31026.14
445.00	30820.95
446.00	30679.74
447.00	30578.32
448.00	30556.47
449.00	30338.80
450.00	29960.42
451.00	29557.85
452.00	28897.81
453.00	28235.44
454.00	27661.23
455.00	27620.66
456.00	28062.24
457.00	28513.97
458.00	29198.96
459.00	29542.24
460.00	29910.49
461.00	29962.76
462.00	30011.13
463.00	29753.67
464.00	29596.85
465.00	29364.36
466.00	29528.98
467.00	29749.77
468.00	29908.93
469.00	30359.87
470.00	30739.04
471.00	31317.15
472.00	31449.00
473.00	31420.91
474.00	31531.70
475.00	31519.99
476.00	31806.32
477.00	31977.18
478.00	32169.10
479.00	32149.60
480.00	31639.36
481.00	31378.78
482.00	30884.93
483.00	30710.17
484.00	30708.61
485.00	30864.64
486.00	31242.25
487.00	31215.72
488.00	31381.90
489.00	31216.50
490.00	31150.97
491.00	30975.43
492.00	30989.47
493.00	31147.07
494.00	31456.02
495.00	31587.87
496.00	31987.32
497.00	32123.07
498.00	32521.74
499.00	32545.93
500.00	32497.56
501.00	32502.24
502.00	32584.16
503.00	32718.35
504.00	32887.65
505.00	32936.80
506.00	33301.14
507.00	33475.90
508.00	33419.73
509.00	33230.15
510.00	33106.10
511.00	33151.35
512.00	33046.80
513.00	32839.28
514.00	32682.46
515.00	32581.82
516.00	32501.46
517.00	32266.63
518.00	32066.12
519.00	31718.94
520.00	31877.32
521.00	31870.29
522.00	32105.91
523.00	32283.79
524.00	32775.30
525.00	33038.22
526.00	32691.82
527.00	32055.98
528.00	31470.06
529.00	31101.82
530.00	30966.85
531.00	30955.93
532.00	31328.07
533.00	31706.46
534.00	31942.85
535.00	32066.90
536.00	31794.62
537.00	31672.91
538.00	31617.52
539.00	31826.60
540.00	32042.71
541.00	32098.89
542.00	32305.63
543.00	32443.73
544.00	32467.91
545.00	32298.61
546.00	31941.29
547.00	31721.28
548.00	31516.09
549.00	31590.99
550.00	31360.06
551.00	31335.87
552.00	31318.71
553.00	31636.24
554.00	31893.70
555.00	32467.13
556.00	32964.89
557.00	33578.89
558.00	33944.01
559.00	34377.79
560.00	34664.11
561.00	34642.27
562.00	34230.33
563.00	33736.48
564.00	33262.91
565.00	33366.68
566.00	33677.19
567.00	33725.56
568.00	33721.66
569.00	33644.42
570.00	34282.61
571.00	34839.65
572.00	35228.96
573.00	35310.88
574.00	35317.12
575.00	35299.96
576.00	35401.38
577.00	35324.93
578.00	35386.56
579.00	35081.51
580.00	34980.87
581.00	34788.16
582.00	34705.46
583.00	34638.37
584.00	35051.86
585.00	35476.28
586.00	36152.69
587.00	36303.27
588.00	36597.40
589.00	36897.77
590.00	37406.44
591.00	38107.82
592.00	38474.51
593.00	38665.65
594.00	38314.57
595.00	38016.54
596.00	38061.01
597.00	38568.13
598.00	39145.46
599.00	39629.95
600.00	39924.08
601.00	40156.57
602.00	40161.25
603.00	40177.64
604.00	40357.86
605.00	40931.29
606.00	41077.18
607.00	41109.95
608.00	41018.67
609.00	41425.92
610.00	41815.23
611.00	42117.16
612.00	42437.81
613.00	42693.71
614.00	42887.98
615.00	42975.36
616.00	42973.80
617.00	43049.47
618.00	43036.99
619.00	43058.06
620.00	43166.50
621.00	43485.59
622.00	43810.93
623.00	44140.94
624.00	44151.87
625.00	44221.30
626.00	43995.83
627.00	44006.75
628.00	43998.17
629.00	44552.10
630.00	44900.84
631.00	44884.45
632.00	43879.58
633.00	42985.50
634.00	41691.96
635.00	40098.84
636.00	38449.54
637.00	37628.79
638.00	38080.52
639.00	39052.62
640.00	40350.06
641.00	41430.60
642.00	42276.32
643.00	43079.90
644.00	43996.61
645.00	44934.38
646.00	45716.90
647.00	46252.11
648.00	46901.22
649.00	47264.00
650.00	47228.11
651.00	46865.33
652.00	46452.61
653.00	46479.92
654.00	46951.15
655.00	47931.83
656.00	48962.45
657.00	49733.26
658.00	50141.30
659.00	50397.20
660.00	50685.08
661.00	50735.79
662.00	50642.17
663.00	50324.64
664.00	50200.59
665.00	50126.47
666.00	50369.89
667.00	50191.23
668.00	49838.59
669.00	49010.82
670.00	48612.15
671.00	48570.02
672.00	49127.84
673.00	50003.20
674.00	50981.55
675.00	51759.39
676.00	52026.99
677.00	51962.23
678.00	51702.43
679.00	51491.01
680.00	51307.66
681.00	51538.60
682.00	52135.43
683.00	52893.77
684.00	53468.76
685.00	53854.17
686.00	54104.60
687.00	54141.27
688.00	53909.56
689.00	53566.28
690.00	53159.81
691.00	52923.41
692.00	52981.15
693.00	53258.89
694.00	53885.37
695.00	54322.27
696.00	54482.21
697.00	54397.95
698.00	54462.71
699.00	54598.46
700.00	54816.13
701.00	54893.36
702.00	54780.24
703.00	54290.29
704.00	53737.14
705.00	53262.01
706.00	53212.86
707.00	53315.84
708.00	53762.11
709.00	54206.81
710.00	54713.92
711.00	55167.99
712.00	55320.12
713.00	55276.43
714.00	55013.51
715.00	54673.35
716.00	54167.02
717.00	53856.51
718.00	53703.59
719.00	53737.92
720.00	53666.14
721.00	53504.65
722.00	53374.36
723.00	53241.73
724.00	53168.39
725.00	53056.82
726.00	53126.26
727.00	53485.14
728.00	53801.89
729.00	54078.86
730.00	54203.69
731.00	54530.58
732.00	54752.15
733.00	54856.70
734.00	54749.03
735.00	54443.20
736.00	54020.34
737.00	53579.54
738.00	53328.33
739.00	53486.70
740.00	53829.20
741.00	54443.98
742.00	54619.52
743.00	54811.45
744.00	54940.17
745.00	55401.26
746.00	55785.11
747.00	56120.59
748.00	56272.72
749.00	56435.78
750.00	56350.74
751.00	56126.05
752.00	55959.87
753.00	55707.87
754.00	55698.51
755.00	55534.67
756.00	55544.81
757.00	55320.12
758.00	55175.01
759.00	54827.05
760.00	54557.89
761.00	54411.21
762.00	54546.18
763.00	54999.47
764.00	55402.04
765.00	55810.85
766.00	56192.36
767.00	56556.70
768.00	56672.95
769.00	56513.01
770.00	56198.60
771.00	55938.02
772.00	55835.82
773.00	55812.41
774.00	55950.51
775.00	55951.29
776.00	55884.97
777.00	55923.98
778.00	55979.37
779.00	56321.87
780.00	56494.29
781.00	56928.07
782.00	57094.25
783.00	57180.85
784.00	56926.51
785.00	56555.92
786.00	56172.08
787.00	55848.30
788.00	55755.46
789.00	55824.90
790.00	55917.74
791.00	55880.29
792.00	55774.97
793.00	55584.60
794.00	55501.90
795.00	55207.78
796.00	55227.28
797.00	55212.46
798.00	55475.38
799.00	55536.23
800.00	55601.77
801.00	55657.94
802.00	55884.97
803.00	55971.57
804.00	56161.15
805.00	56264.92
806.00	56404.57
807.00	56191.58
808.00	55544.03
809.00	54497.81
810.00	53212.08
811.00	51825.70
812.00	50550.11
813.00	50022.71
814.00	50491.60
815.00	51817.90
816.00	53212.08
817.00	54017.22
818.00	54141.27
819.00	53595.93
820.00	52815.75
821.00	52489.63
822.00	52765.82
823.00	53487.48
824.00	54069.50
825.00	54510.30
826.00	54848.89
827.00	55292.04
828.00	55716.45
829.00	56079.24
830.00	56261.02
831.00	56258.68
832.00	56149.45
833.00	55852.98
834.00	55679.78
835.00	55651.70
836.00	56019.16
837.00	56227.47
838.00	56500.53
839.00	56488.83
840.00	56624.58
841.00	56672.95
842.00	56726.00
843.00	56536.42
844.00	56178.32
845.00	55724.25
846.00	55356.01
847.00	55217.14
848.00	55368.49
849.00	55740.64
850.00	56162.71
851.00	56566.07
852.00	56898.42
853.00	57224.54
854.00	57391.50
855.00	57488.24
856.00	57403.98
857.00	57295.53
858.00	57127.02
859.00	56952.26
860.00	56907.79
861.00	56898.42
862.00	57054.46
863.00	57088.79
864.00	56914.03
865.00	56372.58
866.00	55593.96
867.00	54615.62
868.00	53599.05
869.00	52880.50
870.00	52608.22
871.00	52943.70
872.00	53389.96
873.00	54096.02
874.00	54798.96
875.00	55437.93
876.00	55838.94
877.00	56018.38
878.00	56197.04
879.00	56417.05
880.00	56709.62
881.00	57094.25
882.00	57395.40
883.00	57508.52
884.00	57378.23
885.00	57033.39
886.00	56607.42
887.00	56219.67
888.00	56109.66
889.00	56244.63
890.00	56429.54
891.00	56700.26
892.00	57016.23
893.00	57251.84
894.00	57352.49
895.00	57219.08
896.00	57092.69
897.00	56960.06
898.00	56839.13
899.00	56679.97
900.00	56367.90
901.00	55952.85
902.00	55446.51
903.00	54926.91
904.00	54541.50
905.00	54387.81
906.00	54513.42
907.00	54848.89
908.00	55337.29
909.00	55851.42
910.00	56040.23
911.00	56015.26
912.00	55794.47
913.00	55683.69
914.00	55527.65
915.00	55572.90
916.00	55640.00
917.00	55970.01
918.00	56259.46
919.00	56531.74
920.00	56731.46
921.00	56964.74
922.00	57176.17
923.00	57024.81
924.00	56640.18
925.00	56109.66
926.00	55845.96
927.00	55391.90
928.00	55010.39
929.00	54649.17
930.00	54588.31
931.00	54884.00
932.00	55266.29
933.00	55654.82
934.00	55763.26
935.00	55736.74
936.00	55754.68
937.00	55809.29
938.00	55851.42
939.00	55812.41
940.00	55637.65
941.00	55462.11
942.00	55214.80
943.00	54986.99
944.00	54632.00
945.00	54476.75
946.00	54376.11
947.00	54266.10
948.00	54087.44
949.00	53801.11
950.00	53756.64
951.00	53577.20
952.00	53571.74
953.00	53549.12
954.00	53772.25
955.00	54065.59
956.00	54386.25
957.00	54597.68
958.00	54755.27
959.00	54809.89
960.00	54643.71
961.00	54394.05
962.00	54300.43
963.00	54306.67
964.00	54456.46
965.00	54293.41
966.00	54295.75
967.00	54393.27
968.00	54649.95
969.00	54822.37
970.00	55109.47
971.00	55394.24
972.00	55569.00
973.00	55295.16
974.00	55088.41
975.00	54996.35
976.00	54973.72
977.00	54904.29
978.00	54739.67
979.00	54684.28
980.00	54562.57
981.00	54705.34
982.00	54667.11
983.00	54622.64
984.00	54521.22
985.00	54478.31
986.00	54639.03
987.00	54600.80
988.00	54698.32
989.00	54458.80
990.00	54337.88
991.00	53844.02
992.00	53598.27
993.00	53355.63
994.00	53519.47
995.00	53778.49
996.00	53969.63
997.00	54307.45
998.00	54462.71
999.00	54686.62
1000.00	54705.34
1001.00	54693.64
1002.00	54553.21
1003.00	54397.17
1004.00	54419.80
1005.00	54404.97
1006.00	54467.39
1007.00	54277.02
1008.00	54308.23
1009.00	54040.63
1010.00	54021.90
1011.00	53801.89
1012.00	53944.67
1013.00	53806.58
1014.00	53839.34
1015.00	53767.57
1016.00	53894.74
1017.00	54081.98
1018.00	54313.69
1019.00	54479.87
1020.00	54341.78
1021.00	54092.90
1022.00	53790.97
1023.00	53555.36
1024.00	53336.91
1025.00	53308.04
1026.00	53484.36
1027.00	53746.50
1028.00	53868.99
1029.00	53799.55
1030.00	53811.26
1031.00	54057.01
1032.00	54238.01
1033.00	54288.73
1034.00	54243.48
1035.00	54296.53
1036.00	54271.56
1037.00	54171.70
1038.00	54048.43
1039.00	53929.06
1040.00	53748.06
1041.00	53619.33
1042.00	53410.24
1043.00	53346.27
1044.00	53248.75
1045.00	53285.42
1046.00	53115.34
1047.00	52791.56
1048.00	52502.12
1049.00	52428.78
1050.00	52616.02
1051.00	52634.75
1052.00	52791.56
1053.00	52794.68
1054.00	52935.90
1055.00	52752.55
1056.00	52599.64
1057.00	52293.81
1058.00	51918.54
1059.00	51381.00
1060.00	51133.68
1061.00	50892.61
1062.00	51043.18
1063.00	51114.96
1064.00	51310.78
1065.00	51356.81
1066.00	51430.93
1067.00	51378.66
1068.00	51446.54
1069.00	51582.29
1070.00	52062.88
1071.00	52509.92
1072.00	52896.11
1073.00	52916.39
1074.00	52786.88
1075.00	52320.34
1076.00	51927.91
1077.00	51564.34
1078.00	51459.80
1079.00	51384.90
1080.00	51374.76
1081.00	51534.70
1082.00	51725.84
1083.00	51921.66
1084.00	52012.16
1085.00	52134.65
1086.00	52223.59
1087.00	52157.28
1088.00	51825.70
1089.00	51551.86
1090.00	51220.28
1091.00	51193.76
1092.00	51171.13
1093.00	51181.27
1094.00	51315.47
1095.00	51387.24
1096.00	51377.10
1097.00	51228.09
1098.00	51082.97
1099.00	50969.07
1100.00	50688.20
1101.00	50177.18
1102.00	49748.87
1103.00	49536.66
1104.00	49586.59
1105.00	49687.23
1106.00	49772.27
1107.00	49862.77
1108.00	50300.45
1109.00	50541.53
1110.00	51019.00
1111.00	50965.95
1112.00	51077.51
1113.00	50790.41
1114.00	50674.94
1115.00	50273.15
1116.00	49923.63
1117.00	49640.42
1118.00	49345.51
1119.00	49107.56
1120.00	48763.50
1121.00	48648.82
1122.00	48771.30
1123.00	48818.89
1124.00	49131.75
1125.00	49091.18
1126.00	49333.03
1127.00	49206.64
1128.00	48994.43
1129.00	48526.33
1130.00	48234.54
1131.00	47790.62
1132.00	47399.75
1133.00	46891.85
1134.00	46716.31
1135.00	46733.48
1136.00	47011.22
1137.00	47365.42
1138.00	47750.83
1139.00	48067.58
1140.00	48499.02
1141.00	48699.53
1142.00	48854.00
1143.00	48787.69
1144.00	48839.96
1145.00	48723.71
1146.00	48731.51
1147.00	48482.64
1148.00	48352.35
1149.00	48244.68
1150.00	48270.43
1151.00	48335.96
1152.00	48218.94
1153.00	48188.51
1154.00	47978.64
1155.00	47787.50
1156.00	47419.25
1157.00	47149.31
1158.00	46892.63
1159.00	46834.12
1160.00	46667.16
1161.00	46483.04
1162.00	46310.62
1163.00	46341.05
1164.00	46244.30
1165.00	46188.13
1166.00	46075.79
1167.00	46264.59
1168.00	46485.38
1169.00	46711.63
1170.00	46836.46
1171.00	46860.65
1172.00	46593.04
1173.00	46362.89
1174.00	46074.23
1175.00	46102.31
1176.00	45860.46
1177.00	45582.71
1178.00	45218.37
1179.00	44888.35
1180.00	44860.27
1181.00	44907.86
1182.00	45113.83
1183.00	45175.46
1184.00	45338.52
1185.00	45483.63
1186.00	45606.12
1187.00	45734.07
1188.00	45857.34
1189.00	45913.51
1190.00	45759.81
1191.00	45911.17
1192.00	45720.80
1193.00	45778.54
1194.00	45712.22
1195.00	45949.40
1196.00	46000.11
1197.00	45874.50
1198.00	45902.59
1199.00	45890.88
1200.00	46105.43
1201.00	46181.89
1202.00	46258.35
1203.00	46225.58
1204.00	46239.62
1205.00	46357.43
1206.00	46380.84
1207.00	46486.94
1208.00	46455.73
1209.00	46427.65
1210.00	46423.75
1211.00	46404.24
1212.00	46467.44
1213.00	46391.76
1214.00	46249.77
1215.00	46124.94
