SpectraSuite Data File
++++++++++++++++++++++++++++++++++++
Date: Thu Nov 16 13:32:53 EST 2017
User: cheriyan
Dark Spectrum Present: No
Reference Spectrum Present: No
Number of Sampled Component Spectra: 1
Spectrometers: USB2+H05261
Integration Time (usec): 90000 (USB2+H05261)
Spectra Averaged: 1 (USB2+H05261)
Boxcar Smoothing: 1 (USB2+H05261)
Correct for Electrical Dark: No (USB2+H05261)
Strobe/Lamp Enabled: No (USB2+H05261)
Correct for Detector Non-linearity: No (USB2+H05261)
Correct for Stray Light: No (USB2+H05261)
Number of Pixels in Processed Spectrum: 2048
>>>>>Begin Processed Spectral Data<<<<<
0.00	355.76
1.00	355.76
2.00	341.72
3.00	314.41
4.00	285.55
5.00	269.94
6.00	244.20
7.00	237.17
8.00	238.73
9.00	237.17
10.00	230.93
11.00	211.43
12.00	218.45
13.00	243.42
14.00	263.70
15.00	311.29
16.00	294.13
17.00	287.89
18.00	260.58
19.00	269.94
20.00	304.27
21.00	308.17
22.00	301.93
23.00	718.54
24.00	2325.71
25.00	4145.09
26.00	5527.57
27.00	5682.82
28.00	5501.82
29.00	5299.75
30.00	5077.40
31.00	5050.10
32.00	5103.15
33.00	5222.52
34.00	5218.61
35.00	5036.05
36.00	4823.84
37.00	4638.16
38.00	4583.55
39.00	4669.37
40.00	4810.58
41.00	4890.94
42.00	4816.82
43.00	4707.60
44.00	4770.79
45.00	5000.94
46.00	5360.61
47.00	5575.16
48.00	5760.06
49.00	5753.82
50.00	5780.34
51.00	5778.00
52.00	5880.21
53.00	5978.51
54.00	6058.87
55.00	6206.32
56.00	6399.02
57.00	6640.88
58.00	6839.05
59.00	7087.92
60.00	7228.35
61.00	7287.65
62.00	7094.16
63.00	6888.98
64.00	6669.75
65.00	6467.68
66.00	6260.15
67.00	6025.32
68.00	5955.10
69.00	5927.02
70.00	6096.32
71.00	6349.09
72.00	6647.90
73.00	6856.21
74.00	6948.27
75.00	6940.47
76.00	6760.25
77.00	6468.46
78.00	6155.61
79.00	5921.56
80.00	5644.59
81.00	5380.11
82.00	5128.11
83.00	4936.97
84.00	4767.67
85.00	4620.22
86.00	4519.57
87.00	4515.67
88.00	4538.30
89.00	4625.68
90.00	4816.82
91.00	5101.59
92.00	5547.07
93.00	5965.25
94.00	6367.82
95.00	6564.42
96.00	6598.75
97.00	6517.61
98.00	6381.86
99.00	6258.59
100.00	6135.32
101.00	6148.59
102.00	6230.51
103.00	6420.87
104.00	6562.08
105.00	6620.60
106.00	6607.33
107.00	6557.40
108.00	6536.34
109.00	6535.56
110.00	6575.34
111.00	6633.08
112.00	6584.71
113.00	6548.04
114.00	6592.51
115.00	6804.72
116.00	7045.79
117.00	7341.48
118.00	7683.98
119.00	8111.52
120.00	8389.26
121.00	8518.77
122.00	8528.13
123.00	8535.15
124.00	8615.51
125.00	8792.61
126.00	9139.01
127.00	9431.58
128.00	9550.95
129.00	9470.59
130.00	9251.36
131.00	9008.72
132.00	8595.23
133.00	8159.89
134.00	7566.17
135.00	6956.07
136.00	6218.02
137.00	5530.69
138.00	4957.25
139.00	4755.97
140.00	4901.86
141.00	5422.24
142.00	6061.99
143.00	6859.33
144.00	7651.21
145.00	8387.70
146.00	8968.93
147.00	9444.06
148.00	9825.57
149.00	10027.64
150.00	10005.79
151.00	9771.74
152.00	9324.69
153.00	8562.46
154.00	7622.34
155.00	6652.58
156.00	6035.46
157.00	5815.45
158.00	6122.84
159.00	6793.01
160.00	7896.97
161.00	9041.49
162.00	10209.42
163.00	10978.67
164.00	11570.83
165.00	12063.12
166.00	12489.10
167.00	12852.66
168.00	13122.60
169.00	13355.88
170.00	13561.84
171.00	13613.34
172.00	13829.45
173.00	13937.11
174.00	14050.24
175.00	14151.66
176.00	14221.88
177.00	14322.52
178.00	14431.74
179.00	14705.59
180.00	14960.70
181.00	15126.10
182.00	15256.39
183.00	15441.29
184.00	15522.43
185.00	15505.27
186.00	15340.65
187.00	15300.08
188.00	15122.98
189.00	14964.61
190.00	14757.08
191.00	14944.32
192.00	15229.87
193.00	15573.92
194.00	15594.99
195.00	15351.57
196.00	15115.18
197.00	14966.95
198.00	15166.67
199.00	15194.76
200.00	15417.11
201.00	15418.67
202.00	15423.35
203.00	15245.47
204.00	15141.71
205.00	15000.49
206.00	14858.50
207.00	14888.15
208.00	15058.23
209.00	15340.65
210.00	15438.17
211.00	15424.91
212.00	15311.00
213.00	15399.16
214.00	15714.36
215.00	16059.98
216.00	16340.84
217.00	16673.98
218.00	16936.12
219.00	17292.66
220.00	17368.34
221.00	17355.07
222.00	16940.80
223.00	16381.41
224.00	15706.55
225.00	15187.74
226.00	14986.45
227.00	15179.93
228.00	15622.30
229.00	16120.05
230.00	16774.62
231.00	17372.24
232.00	17972.19
233.00	18283.48
234.00	18427.82
235.00	18442.64
236.00	18491.79
237.00	18503.50
238.00	18363.84
239.00	18245.26
240.00	18105.60
241.00	18131.35
242.00	18175.04
243.00	18260.86
244.00	18620.52
245.00	18785.92
246.00	18981.74
247.00	18822.59
248.00	18856.14
249.00	18750.03
250.00	18799.18
251.00	18814.79
252.00	18946.64
253.00	18973.94
254.00	19035.58
255.00	19353.11
256.00	19722.13
257.00	20048.25
258.00	20192.58
259.00	20322.87
260.00	20233.15
261.00	20006.90
262.00	19600.43
263.00	19275.09
264.00	19097.99
265.00	19129.98
266.00	19238.42
267.00	19486.52
268.00	19619.93
269.00	19850.86
270.00	19825.90
271.00	19911.72
272.00	20076.34
273.00	20384.51
274.00	20436.00
275.00	20313.51
276.00	19993.64
277.00	19744.76
278.00	19516.17
279.00	19694.83
280.00	20143.43
281.00	20787.86
282.00	21268.45
283.00	21628.11
284.00	21678.04
285.00	21617.19
286.00	21533.71
287.00	21368.31
288.00	21062.48
289.00	20560.05
290.00	20023.28
291.00	19506.80
292.00	19264.95
293.00	19410.84
294.00	19813.42
295.00	20211.31
296.00	20471.11
297.00	20524.16
298.00	20528.06
299.00	20503.87
300.00	20624.80
301.00	20431.32
302.00	20377.48
303.00	20265.92
304.00	20344.72
305.00	20271.38
306.00	20094.28
307.00	19954.63
308.00	19878.17
309.00	19847.74
310.00	20036.55
311.00	20301.81
312.00	20363.44
313.00	20283.86
314.00	19668.30
315.00	19195.51
316.00	18760.95
317.00	18849.11
318.00	19186.15
319.00	19535.67
320.00	19833.70
321.00	19811.07
322.00	19749.44
323.00	19482.62
324.00	19347.65
325.00	19147.92
326.00	19181.47
327.00	19024.65
328.00	18503.50
329.00	17650.76
330.00	16737.95
331.00	15903.94
332.00	15195.54
333.00	14661.90
334.00	14484.02
335.00	14719.63
336.00	15343.77
337.00	16587.38
338.00	18296.75
339.00	20130.95
340.00	21545.41
341.00	22202.32
342.00	21953.44
343.00	21320.72
344.00	20644.31
345.00	20708.28
346.00	21186.53
347.00	21916.78
348.00	22313.11
349.00	22138.35
350.00	21404.20
351.00	20425.86
352.00	19737.74
353.00	19704.19
354.00	20231.59
355.00	20989.14
356.00	21635.13
357.00	22035.36
358.00	22104.80
359.00	22278.78
360.00	22548.72
361.00	23073.78
362.00	23459.97
363.00	23882.83
364.00	24187.88
365.00	24265.89
366.00	24184.76
367.00	23954.60
368.00	23739.27
369.00	23402.24
370.00	23221.24
371.00	22753.91
372.00	22590.07
373.00	22072.81
374.00	21675.70
375.00	21105.39
376.00	20826.09
377.00	20879.92
378.00	21364.41
379.00	21953.44
380.00	22720.36
381.00	23295.35
382.00	23892.19
383.00	24151.99
384.00	24059.15
385.00	23836.80
386.00	23569.19
387.00	23707.29
388.00	24022.48
389.00	24750.38
390.00	25385.45
391.00	25752.91
392.00	25919.87
393.00	26242.09
394.00	26672.74
395.00	27057.37
396.00	27101.84
397.00	27220.43
398.00	27435.76
399.00	27587.11
400.00	27555.13
401.00	27429.52
402.00	27388.95
403.00	27652.65
404.00	27904.65
405.00	28145.72
406.00	28183.17
407.00	28090.33
408.00	27754.85
409.00	27765.78
410.00	27988.91
411.00	28278.35
412.00	27789.18
413.00	26965.31
414.00	26139.10
415.00	25752.13
416.00	25661.63
417.00	25808.31
418.00	26173.43
419.00	26554.16
420.00	26960.63
421.00	27338.24
422.00	27892.16
423.00	28334.53
424.00	28708.23
425.00	28879.87
426.00	28790.15
427.00	28580.28
428.00	28376.66
429.00	28442.97
430.00	28437.51
431.00	28311.12
432.00	28237.00
433.00	28286.93
434.00	28473.40
435.00	28661.42
436.00	28890.01
437.00	29134.99
438.00	29296.49
439.00	29734.17
440.00	30268.59
441.00	30875.57
442.00	31034.72
443.00	30785.07
444.00	30604.06
445.00	30375.47
446.00	30204.61
447.00	30074.32
448.00	29919.07
449.00	29779.42
450.00	29560.19
451.00	29250.45
452.00	28752.70
453.00	27974.86
454.00	27494.27
455.00	27375.69
456.00	27733.79
457.00	28261.97
458.00	28785.47
459.00	29198.96
460.00	29532.10
461.00	29653.81
462.00	29780.20
463.00	29503.23
464.00	29387.77
465.00	29118.60
466.00	29192.72
467.00	29494.65
468.00	29707.64
469.00	30167.94
470.00	30602.50
471.00	31031.60
472.00	31089.34
473.00	30888.05
474.00	31044.87
475.00	31223.53
476.00	31621.42
477.00	31793.06
478.00	31982.64
479.00	31934.27
480.00	31488.79
481.00	31123.66
482.00	30693.79
483.00	30443.35
484.00	30447.25
485.00	30639.17
486.00	30955.93
487.00	30960.61
488.00	30997.27
489.00	30994.93
490.00	30847.48
491.00	30795.21
492.00	30827.20
493.00	30868.55
494.00	30916.92
495.00	30929.40
496.00	31318.71
497.00	31693.19
498.00	32002.14
499.00	32295.49
500.00	32176.12
501.00	32280.67
502.00	32212.01
503.00	32262.72
504.00	32599.76
505.00	32670.76
506.00	32932.12
507.00	33014.82
508.00	33061.63
509.00	32956.30
510.00	32755.80
511.00	32471.03
512.00	32297.83
513.00	32126.97
514.00	32141.02
515.00	32137.12
516.00	32012.29
517.00	31745.47
518.00	31480.99
519.00	31033.94
520.00	31341.33
521.00	31415.45
522.00	31742.35
523.00	31933.49
524.00	32298.61
525.00	32494.44
526.00	32108.25
527.00	31799.30
528.00	31168.91
529.00	30710.95
530.00	30280.29
531.00	30471.43
532.00	30803.79
533.00	31403.75
534.00	31585.53
535.00	31726.74
536.00	31239.13
537.00	31055.79
538.00	31073.73
539.00	31565.24
540.00	31796.96
541.00	31860.93
542.00	31755.61
543.00	31787.60
544.00	31718.94
545.00	31726.74
546.00	31524.68
547.00	31301.54
548.00	31021.46
549.00	30952.80
550.00	30853.72
551.00	30921.60
552.00	31066.71
553.00	31514.53
554.00	31794.62
555.00	32154.28
556.00	32488.20
557.00	33062.41
558.00	33643.64
559.00	34118.77
560.00	34309.91
561.00	34152.32
562.00	33586.69
563.00	33163.83
564.00	32790.91
565.00	32982.83
566.00	33253.55
567.00	33451.72
568.00	33664.71
569.00	33579.67
570.00	34021.25
571.00	34412.12
572.00	34788.94
573.00	34859.16
574.00	34834.19
575.00	34811.57
576.00	35059.66
577.00	35025.34
578.00	35110.38
579.00	34692.20
580.00	34435.52
581.00	34222.53
582.00	34196.79
583.00	34259.98
584.00	34558.79
585.00	35162.65
586.00	35905.38
587.00	36129.29
588.00	36303.27
589.00	36644.21
590.00	37117.00
591.00	37682.62
592.00	37922.92
593.00	38169.46
594.00	37896.39
595.00	37652.98
596.00	37521.13
597.00	37884.69
598.00	38498.69
599.00	39084.61
600.00	39605.77
601.00	39761.80
602.00	39754.78
603.00	39794.57
604.00	39879.61
605.00	40520.91
606.00	40591.91
607.00	40656.67
608.00	40617.66
609.00	40848.59
610.00	41273.79
611.00	41528.13
612.00	42118.72
613.00	42463.56
614.00	42720.24
615.00	42572.78
616.00	42421.43
617.00	42393.34
618.00	42407.39
619.00	42538.46
620.00	42683.57
621.00	43035.43
622.00	43264.80
623.00	43699.36
624.00	43615.88
625.00	43656.45
626.00	43298.35
627.00	43352.96
628.00	43480.91
629.00	43998.17
630.00	44344.57
631.00	44258.75
632.00	43484.81
633.00	42729.60
634.00	41476.63
635.00	39807.05
636.00	37919.80
637.00	37024.93
638.00	37322.96
639.00	38567.35
640.00	39824.22
641.00	40991.36
642.00	41762.18
643.00	42699.95
644.00	43522.26
645.00	44394.50
646.00	45138.79
647.00	45796.48
648.00	46515.03
649.00	46798.23
650.00	46731.14
651.00	46269.27
652.00	45872.16
653.00	45963.44
654.00	46415.16
655.00	47505.85
656.00	48562.22
657.00	49418.85
658.00	49771.49
659.00	50106.19
660.00	50291.09
661.00	50391.73
662.00	50234.92
663.00	50053.92
664.00	49955.61
665.00	49886.18
666.00	50015.69
667.00	49831.57
668.00	49359.56
669.00	48498.24
670.00	47993.47
671.00	48087.87
672.00	48751.80
673.00	49767.59
674.00	50638.27
675.00	51331.07
676.00	51596.33
677.00	51372.42
678.00	51074.39
679.00	50696.78
680.00	50841.12
681.00	51228.87
682.00	51951.31
683.00	52513.82
684.00	52967.10
685.00	53276.83
686.00	53613.87
687.00	53646.64
688.00	53371.24
689.00	52965.54
690.00	52683.12
691.00	52636.31
692.00	52679.22
693.00	53013.13
694.00	53404.78
695.00	53876.01
696.00	54009.42
697.00	53989.92
698.00	53985.24
699.00	54083.54
700.00	54334.76
701.00	54570.37
702.00	54556.33
703.00	54191.98
704.00	53439.11
705.00	52895.33
706.00	52711.99
707.00	52993.63
708.00	53509.33
709.00	53969.63
710.00	54407.31
711.00	54646.83
712.00	54816.91
713.00	54783.36
714.00	54689.74
715.00	54323.83
716.00	53859.63
717.00	53531.17
718.00	53199.60
719.00	53211.30
720.00	53202.72
721.00	53324.43
722.00	53135.62
723.00	52900.79
724.00	52820.43
725.00	52799.36
726.00	52862.56
727.00	53130.16
728.00	53426.63
729.00	53713.73
730.00	53872.89
731.00	54088.22
732.00	54260.64
733.00	54358.16
734.00	54292.63
735.00	54090.56
736.00	53620.89
737.00	53244.85
738.00	53040.44
739.00	53179.31
740.00	53404.78
741.00	53895.52
742.00	54176.38
743.00	54477.53
744.00	54534.48
745.00	54952.66
746.00	55324.02
747.00	55814.76
748.00	56040.23
749.00	56158.03
750.00	55952.07
751.00	55747.66
752.00	55599.43
753.00	55436.37
754.00	55287.35
755.00	55142.24
756.00	55079.05
757.00	54958.12
758.00	54811.45
759.00	54612.50
760.00	54326.95
761.00	54184.96
762.00	54269.22
763.00	54679.60
764.00	55128.20
765.00	55543.25
766.00	55936.46
767.00	56165.06
768.00	56194.70
769.00	56041.01
770.00	55842.84
771.00	55609.57
772.00	55540.13
773.00	55523.75
774.00	55644.68
775.00	55682.12
776.00	55646.24
777.00	55679.78
778.00	55709.43
779.00	55940.36
780.00	56126.83
781.00	56566.85
782.00	56765.01
783.00	56780.62
784.00	56445.92
785.00	56021.50
786.00	55704.75
787.00	55357.57
788.00	55356.79
789.00	55441.05
790.00	55539.35
791.00	55578.36
792.00	55491.76
793.00	55312.32
794.00	55173.45
795.00	54932.37
796.00	54925.35
797.00	54902.73
798.00	55140.68
799.00	55306.08
800.00	55388.00
801.00	55451.97
802.00	55552.62
803.00	55674.32
804.00	55850.64
805.00	56094.84
806.00	56166.62
807.00	55885.75
808.00	55118.84
809.00	54029.71
810.00	52700.28
811.00	51278.80
812.00	50142.86
813.00	49532.76
814.00	50186.55
815.00	51382.56
816.00	52894.55
817.00	53614.65
818.00	53712.95
819.00	53100.51
820.00	52349.98
821.00	52071.46
822.00	52317.21
823.00	53002.21
824.00	53624.79
825.00	54117.09
826.00	54516.54
827.00	54915.21
828.00	55332.60
829.00	55640.00
830.00	55878.73
831.00	55897.45
832.00	55871.71
833.00	55575.24
834.00	55459.77
835.00	55387.22
836.00	55654.82
837.00	55993.42
838.00	56261.02
839.00	56371.80
840.00	56344.50
841.00	56322.65
842.00	56306.27
843.00	56226.69
844.00	55873.27
845.00	55505.02
846.00	55153.94
847.00	55100.89
848.00	55084.51
849.00	55391.90
850.00	55700.07
851.00	56161.15
852.00	56454.50
853.00	56877.36
854.00	57109.07
855.00	57280.71
856.00	57122.33
857.00	57053.68
858.00	56798.56
859.00	56712.74
860.00	56528.62
861.00	56492.73
862.00	56594.93
863.00	56732.25
864.00	56623.80
865.00	56132.29
866.00	55270.97
867.00	54349.58
868.00	53351.73
869.00	52728.37
870.00	52343.74
871.00	52594.96
872.00	52973.34
873.00	53702.03
874.00	54417.46
875.00	55096.21
876.00	55528.43
877.00	55650.14
878.00	55784.33
879.00	56016.82
880.00	56314.07
881.00	56619.90
882.00	56867.22
883.00	57110.63
884.00	56942.89
885.00	56608.20
886.00	56105.76
887.00	55888.09
888.00	55770.28
889.00	55881.07
890.00	56116.68
891.00	56333.57
892.00	56701.04
893.00	56862.53
894.00	57022.47
895.00	56877.36
896.00	56800.12
897.00	56662.81
898.00	56518.48
899.00	56349.96
900.00	56061.29
901.00	55620.49
902.00	55045.50
903.00	54426.82
904.00	54154.54
905.00	54109.28
906.00	54376.89
907.00	54735.77
908.00	55075.15
909.00	55530.77
910.00	55649.36
911.00	55615.81
912.00	55334.17
913.00	55247.57
914.00	55250.69
915.00	55395.80
916.00	55405.94
917.00	55643.90
918.00	55838.94
919.00	56083.92
920.00	56245.41
921.00	56495.07
922.00	56687.77
923.00	56636.28
924.00	56307.05
925.00	56002.78
926.00	55667.30
927.00	55188.27
928.00	54642.93
929.00	54389.37
930.00	54458.80
931.00	54749.81
932.00	55064.22
933.00	55342.75
934.00	55488.64
935.00	55382.54
936.00	55409.06
937.00	55448.07
938.00	55448.07
939.00	55361.47
940.00	55258.49
941.00	54990.89
942.00	54781.80
943.00	54462.71
944.00	54322.27
945.00	54108.50
946.00	53998.50
947.00	53831.54
948.00	53615.43
949.00	53299.46
950.00	53208.18
951.00	53161.37
952.00	53095.05
953.00	53186.33
954.00	53340.03
955.00	53776.93
956.00	54008.64
957.00	54202.13
958.00	54370.64
959.00	54392.49
960.00	54294.97
961.00	54036.73
962.00	54080.42
963.00	54079.64
964.00	54194.32
965.00	54088.22
966.00	54109.28
967.00	54132.69
968.00	54308.23
969.00	54428.38
970.00	54731.09
971.00	54979.96
972.00	55172.67
973.00	54972.16
974.00	54757.61
975.00	54749.81
976.00	54721.72
977.00	54641.37
978.00	54522.78
979.00	54443.98
980.00	54391.71
981.00	54488.45
982.00	54538.38
983.00	54543.84
984.00	54344.90
985.00	54235.67
986.00	54169.36
987.00	54060.91
988.00	54126.45
989.00	53989.92
990.00	53920.48
991.00	53500.75
992.00	53249.53
993.00	53013.91
994.00	53117.68
995.00	53375.92
996.00	53620.11
997.00	53937.65
998.00	54149.85
999.00	54357.38
1000.00	54341.78
1001.00	54230.99
1002.00	54143.61
1003.00	54014.88
1004.00	54100.70
1005.00	54042.19
1006.00	53989.14
1007.00	53819.06
1008.00	53801.11
1009.00	53572.52
1010.00	53565.50
1011.00	53405.56
1012.00	53597.49
1013.00	53340.03
1014.00	53386.84
1015.00	53322.86
1016.00	53615.43
1017.00	53789.41
1018.00	54119.43
1019.00	54153.76
1020.00	54003.96
1021.00	53739.48
1022.00	53333.79
1023.00	52979.59
1024.00	52706.52
1025.00	52803.27
1026.00	53139.52
1027.00	53315.84
1028.00	53503.87
1029.00	53340.03
1030.00	53470.32
1031.00	53715.29
1032.00	53949.35
1033.00	54075.74
1034.00	53896.30
1035.00	53915.80
1036.00	53949.35
1037.00	53982.90
1038.00	53964.17
1039.00	53676.29
1040.00	53537.41
1041.00	53237.83
1042.00	53018.60
1043.00	52915.61
1044.00	52891.43
1045.00	52892.21
1046.00	52640.99
1047.00	52294.59
1048.00	52113.59
1049.00	51996.56
1050.00	52229.83
1051.00	52311.75
1052.00	52440.48
1053.00	52439.70
1054.00	52502.90
1055.00	52478.71
1056.00	52300.83
1057.00	51961.45
1058.00	51332.63
1059.00	50869.20
1060.00	50476.77
1061.00	50522.80
1062.00	50676.50
1063.00	50827.07
1064.00	50909.77
1065.00	50854.38
1066.00	50925.38
1067.00	50917.57
1068.00	50977.65
1069.00	51080.63
1070.00	51444.98
1071.00	51891.24
1072.00	52367.15
1073.00	52605.88
1074.00	52488.07
1075.00	52122.17
1076.00	51672.79
1077.00	51324.83
1078.00	51112.62
1079.00	50937.08
1080.00	50926.16
1081.00	51097.80
1082.00	51383.34
1083.00	51593.99
1084.00	51655.62
1085.00	51713.36
1086.00	51801.52
1087.00	51659.52
1088.00	51420.01
1089.00	51221.06
1090.00	51016.66
1091.00	50933.96
1092.00	50824.73
1093.00	50809.91
1094.00	50911.33
1095.00	50949.56
1096.00	51107.94
1097.00	51071.27
1098.00	50887.15
1099.00	50569.61
1100.00	50167.04
1101.00	49700.50
1102.00	49338.49
1103.00	49178.56
1104.00	49201.18
1105.00	49439.92
1106.00	49567.87
1107.00	49727.80
1108.00	49776.95
1109.00	49938.45
1110.00	50237.26
1111.00	50342.58
1112.00	50537.63
1113.00	50503.30
1114.00	50406.56
1115.00	49971.22
1116.00	49551.48
1117.00	49262.82
1118.00	48973.37
1119.00	48729.17
1120.00	48519.31
1121.00	48433.49
1122.00	48526.33
1123.00	48697.97
1124.00	48869.61
1125.00	48837.62
1126.00	48686.26
1127.00	48634.77
1128.00	48287.59
1129.00	48113.61
1130.00	47792.18
1131.00	47604.94
1132.00	47087.68
1133.00	46792.77
1134.00	46476.02
1135.00	46442.47
1136.00	46314.52
1137.00	46821.64
1138.00	47293.64
1139.00	47851.47
1140.00	48001.27
1141.00	48173.69
1142.00	48343.77
1143.00	48306.32
1144.00	48227.52
1145.00	48095.67
1146.00	48248.58
1147.00	48203.33
1148.00	48152.62
1149.00	48022.33
1150.00	47911.55
1151.00	47782.04
1152.00	47870.98
1153.00	47799.98
1154.00	47585.43
1155.00	47281.94
1156.00	46995.62
1157.00	47029.16
1158.00	46540.77
1159.00	46351.97
1160.00	45755.13
1161.00	45724.71
1162.00	45721.58
1163.00	45694.28
1164.00	45578.03
1165.00	45587.39
1166.00	45701.30
1167.00	46011.03
1168.00	46059.40
1169.00	46234.16
1170.00	46217.78
1171.00	46212.32
1172.00	46072.67
1173.00	45863.58
1174.00	45824.57
1175.00	45802.72
1176.00	45631.86
1177.00	45100.56
1178.00	44607.49
1179.00	44313.36
1180.00	44307.90
1181.00	44492.02
1182.00	44651.96
1183.00	44740.12
1184.00	44889.13
1185.00	45026.45
1186.00	45123.19
1187.00	45287.81
1188.00	45319.79
1189.00	45460.23
1190.00	45416.54
1191.00	45592.08
1192.00	45435.26
1193.00	45358.80
1194.00	45209.79
1195.00	45400.93
1196.00	45474.27
1197.00	45485.19
1198.00	45397.03
1199.00	45368.94
1200.00	45487.53
1201.00	45619.38
1202.00	45703.64
1203.00	45823.79
1204.00	46006.35
1205.00	46075.01
1206.00	46057.84
1207.00	46171.75
1208.00	46133.52
1209.00	46126.50
1210.00	45862.02
1211.00	45860.46
1212.00	45773.08
1213.00	45820.67
1214.00	45648.25
1215.00	45567.89
