SpectraSuite Data File
++++++++++++++++++++++++++++++++++++
Date: Thu Nov 16 13:32:48 EST 2017
User: cheriyan
Dark Spectrum Present: No
Reference Spectrum Present: No
Number of Sampled Component Spectra: 1
Spectrometers: USB2+H05261
Integration Time (usec): 90000 (USB2+H05261)
Spectra Averaged: 1 (USB2+H05261)
Boxcar Smoothing: 1 (USB2+H05261)
Correct for Electrical Dark: No (USB2+H05261)
Strobe/Lamp Enabled: No (USB2+H05261)
Correct for Detector Non-linearity: No (USB2+H05261)
Correct for Stray Light: No (USB2+H05261)
Number of Pixels in Processed Spectrum: 2048
>>>>>Begin Processed Spectral Data<<<<<
0.00	304.27
1.00	304.27
2.00	310.51
3.00	305.83
4.00	298.03
5.00	266.82
6.00	248.88
7.00	239.51
8.00	247.32
9.00	246.54
10.00	243.42
11.00	252.00
12.00	258.24
13.00	257.46
14.00	252.00
15.00	252.00
16.00	242.64
17.00	249.66
18.00	236.39
19.00	283.98
20.00	305.83
21.00	330.02
22.00	334.70
23.00	789.54
24.00	2480.97
25.00	4257.43
26.00	5647.71
27.00	5777.22
28.00	5685.16
29.00	5415.22
30.00	5213.93
31.00	5131.23
32.00	5209.25
33.00	5274.01
34.00	5267.77
35.00	5129.67
36.00	4901.86
37.00	4713.06
38.00	4646.74
39.00	4731.78
40.00	4870.65
41.00	4965.06
42.00	4951.01
43.00	4874.56
44.00	4891.72
45.00	5078.18
46.00	5432.38
47.00	5708.57
48.00	5890.35
49.00	5937.94
50.00	5893.47
51.00	5827.93
52.00	5778.00
53.00	5879.43
54.00	6038.58
55.00	6250.79
56.00	6501.23
57.00	6815.64
58.00	7112.11
59.00	7353.96
60.00	7399.21
61.00	7508.44
62.00	7416.38
63.00	7215.87
64.00	6874.15
65.00	6581.59
66.00	6352.99
67.00	6144.69
68.00	6072.91
69.00	6173.55
70.00	6299.94
71.00	6456.76
72.00	6653.36
73.00	6959.19
74.00	7092.60
75.00	7085.58
76.00	6846.85
77.00	6604.21
78.00	6270.30
79.00	5912.19
80.00	5636.79
81.00	5376.21
82.00	5199.89
83.00	5009.53
84.00	4862.07
85.00	4715.40
86.00	4614.76
87.00	4585.11
88.00	4617.88
89.00	4678.73
90.00	4927.61
91.00	5344.22
92.00	5830.27
93.00	6254.69
94.00	6537.90
95.00	6731.38
96.00	6746.98
97.00	6672.09
98.00	6467.68
99.00	6307.74
100.00	6235.19
101.00	6264.83
102.00	6410.73
103.00	6509.81
104.00	6640.88
105.00	6635.42
106.00	6593.29
107.00	6573.00
108.00	6593.29
109.00	6710.32
110.00	6718.12
111.00	6683.79
112.00	6611.23
113.00	6576.91
114.00	6681.45
115.00	6866.35
116.00	7190.91
117.00	7534.96
118.00	7941.44
119.00	8342.45
120.00	8576.50
121.00	8617.85
122.00	8592.11
123.00	8548.42
124.00	8671.68
125.00	8844.88
126.00	9118.73
127.00	9389.45
128.00	9554.07
129.00	9632.86
130.00	9398.81
131.00	9097.66
132.00	8727.86
133.00	8316.70
134.00	7800.23
135.00	7093.38
136.00	6307.74
137.00	5519.76
138.00	4912.00
139.00	4752.07
140.00	4983.00
141.00	5588.42
142.00	6306.18
143.00	7053.59
144.00	7790.08
145.00	8457.92
146.00	9078.16
147.00	9612.58
148.00	9973.80
149.00	10188.35
150.00	10239.84
151.00	10009.69
152.00	9582.93
153.00	8742.68
154.00	7838.45
155.00	6831.24
156.00	6117.38
157.00	5834.18
158.00	6128.30
159.00	6901.46
160.00	7996.83
161.00	9250.58
162.00	10444.25
163.00	11390.61
164.00	12042.06
165.00	12511.72
166.00	12949.40
167.00	13130.41
168.00	13433.89
169.00	13560.28
170.00	13841.93
171.00	13832.57
172.00	13948.03
173.00	14002.64
174.00	14232.80
175.00	14345.92
176.00	14545.65
177.00	14739.13
178.00	15028.58
179.00	15390.58
180.00	15576.27
181.00	15747.12
182.00	15696.41
183.00	15730.74
184.00	15727.62
185.00	15744.00
186.00	15698.75
187.00	15656.62
188.00	15410.09
189.00	15140.15
190.00	15011.42
191.00	15253.27
192.00	15634.00
193.00	15887.56
194.00	15916.42
195.00	15712.80
196.00	15462.36
197.00	15270.44
198.00	15451.44
199.00	15513.07
200.00	15732.30
201.00	15727.62
202.00	15877.41
203.00	15670.67
204.00	15424.91
205.00	15180.71
206.00	15093.33
207.00	15085.53
208.00	15157.31
209.00	15413.21
210.00	15579.39
211.00	15607.47
212.00	15545.84
213.00	15701.09
214.00	16053.73
215.00	16442.26
216.00	16797.24
217.00	17090.59
218.00	17305.14
219.00	17564.16
220.00	17654.66
221.00	17680.41
222.00	17319.96
223.00	16742.63
224.00	16080.26
225.00	15550.52
226.00	15277.46
227.00	15449.10
228.00	15882.88
229.00	16529.64
230.00	17178.75
231.00	17848.15
232.00	18415.34
233.00	18722.73
234.00	18845.21
235.00	18853.80
236.00	18970.04
237.00	18948.20
238.00	18899.05
239.00	18690.74
240.00	18405.97
241.00	18247.60
242.00	18258.52
243.00	18503.50
244.00	18944.30
245.00	19144.02
246.00	19381.98
247.00	19276.65
248.00	19332.82
249.00	19315.66
250.00	19381.98
251.00	19337.51
252.00	19425.67
253.00	19364.81
254.00	19570.00
255.00	19776.75
256.00	20178.54
257.00	20501.53
258.00	20730.12
259.00	20817.50
260.00	20672.39
261.00	20501.53
262.00	20194.92
263.00	19939.80
264.00	19679.22
265.00	19641.78
266.00	19726.04
267.00	19818.88
268.00	19886.75
269.00	19902.36
270.00	20045.13
271.00	20233.15
272.00	20570.19
273.00	20690.34
274.00	20672.39
275.00	20461.74
276.00	20284.64
277.00	20045.13
278.00	19889.09
279.00	19991.30
280.00	20514.02
281.00	21180.29
282.00	21632.79
283.00	21941.74
284.00	21933.16
285.00	21936.28
286.00	21859.04
287.00	21848.90
288.00	21636.69
289.00	21128.80
290.00	20466.42
291.00	19892.21
292.00	19795.47
293.00	20045.13
294.00	20619.34
295.00	20939.21
296.00	21066.38
297.00	20990.70
298.00	20950.14
299.00	20960.28
300.00	20922.83
301.00	20752.75
302.00	20630.26
303.00	20624.02
304.00	20775.38
305.00	20776.94
306.00	20673.17
307.00	20460.96
308.00	20204.28
309.00	20167.62
310.00	20404.79
311.00	20886.16
312.00	20929.07
313.00	20631.82
314.00	20009.24
315.00	19351.55
316.00	19039.48
317.00	19100.33
318.00	19529.43
319.00	19785.33
320.00	20093.50
321.00	20201.94
322.00	20159.03
323.00	19893.77
324.00	19662.84
325.00	19533.33
326.00	19399.92
327.00	19162.75
328.00	18615.84
329.00	17875.45
330.00	17085.91
331.00	16173.88
332.00	15508.39
333.00	14946.66
334.00	14900.63
335.00	15021.56
336.00	15676.91
337.00	16850.30
338.00	18605.70
339.00	20570.97
340.00	22033.80
341.00	22817.88
342.00	22340.41
343.00	21840.32
344.00	21178.73
345.00	21404.20
346.00	21912.10
347.00	22504.25
348.00	22882.64
349.00	22550.28
350.00	21754.50
351.00	20745.73
352.00	20120.03
353.00	20127.83
354.00	20630.26
355.00	21331.64
356.00	22051.75
357.00	22462.12
358.00	22553.40
359.00	22745.33
360.00	22888.10
361.00	23502.88
362.00	23897.65
363.00	24396.96
364.00	24581.09
365.00	24602.15
366.00	24513.21
367.00	24330.65
368.00	24024.82
369.00	23577.00
370.00	23374.93
371.00	23235.28
372.00	23121.37
373.00	22674.33
374.00	22027.56
375.00	21649.96
376.00	21333.98
377.00	21513.42
378.00	21847.34
379.00	22501.91
380.00	23055.06
381.00	23721.33
382.00	24193.34
383.00	24593.57
384.00	24388.38
385.00	24030.28
386.00	23867.22
387.00	24024.82
388.00	24537.40
389.00	25242.68
390.00	25918.31
391.00	26342.73
392.00	26481.60
393.00	26755.44
394.00	27181.42
395.00	27452.14
396.00	27647.19
397.00	27858.62
398.00	28173.03
399.00	28449.21
400.00	28252.61
401.00	28059.90
402.00	27873.44
403.00	28157.42
404.00	28525.67
405.00	28712.13
406.00	28950.87
407.00	28860.37
408.00	28616.17
409.00	28391.48
410.00	28496.80
411.00	28661.42
412.00	28213.60
413.00	27523.92
414.00	26682.11
415.00	26343.51
416.00	26193.72
417.00	26414.51
418.00	26738.28
419.00	27143.97
420.00	27776.70
421.00	28268.21
422.00	28535.81
423.00	28851.00
424.00	29110.80
425.00	29537.56
426.00	29362.02
427.00	29168.54
428.00	28974.27
429.00	28922.78
430.00	29028.88
431.00	28971.93
432.00	28966.47
433.00	28840.08
434.00	28912.64
435.00	29082.72
436.00	29280.88
437.00	29570.33
438.00	29976.02
439.00	30352.07
440.00	30893.51
441.00	31321.05
442.00	31608.15
443.00	31460.70
444.00	31234.45
445.00	31100.26
446.00	30899.75
447.00	30848.26
448.00	30629.03
449.00	30504.98
450.00	30196.81
451.00	29720.90
452.00	29091.30
453.00	28532.69
454.00	28223.74
455.00	28194.87
456.00	28336.09
457.00	28863.49
458.00	29403.37
459.00	29773.17
460.00	29976.80
461.00	30043.90
462.00	30235.82
463.00	30074.32
464.00	29918.29
465.00	29732.61
466.00	29815.30
467.00	30151.56
468.00	30350.51
469.00	30747.62
470.00	31076.85
471.00	31534.04
472.00	31738.44
473.00	31571.49
474.00	31716.60
475.00	31726.74
476.00	32010.73
477.00	32178.47
478.00	32384.43
479.00	32622.39
480.00	32311.10
481.00	31912.42
482.00	31232.11
483.00	30888.05
484.00	31042.53
485.00	31356.16
486.00	31627.66
487.00	31628.44
488.00	31562.90
489.00	31449.78
490.00	31288.28
491.00	31295.30
492.00	31374.88
493.00	31601.91
494.00	31708.02
495.00	31743.13
496.00	31995.90
497.00	32360.25
498.00	32797.93
499.00	32960.98
500.00	32855.66
501.00	32900.91
502.00	33029.64
503.00	33292.56
504.00	33481.36
505.00	33337.03
506.00	33337.81
507.00	33330.01
508.00	33481.36
509.00	33486.04
510.00	33287.10
511.00	32997.65
512.00	32867.36
513.00	32972.69
514.00	33004.67
515.00	32976.59
516.00	32618.49
517.00	32330.60
518.00	32037.25
519.00	31776.67
520.00	32085.62
521.00	32186.27
522.00	32428.90
523.00	32578.70
524.00	32914.17
525.00	33266.03
526.00	32861.12
527.00	32397.70
528.00	31659.65
529.00	31379.56
530.00	31083.09
531.00	31143.95
532.00	31388.92
533.00	31761.07
534.00	32070.02
535.00	32209.67
536.00	32015.41
537.00	31931.15
538.00	32009.17
539.00	32241.66
540.00	32393.01
541.00	32396.14
542.00	32507.70
543.00	32524.08
544.00	32403.94
545.00	32318.12
546.00	32077.82
547.00	31871.07
548.00	31657.31
549.00	31655.75
550.00	31608.93
551.00	31779.01
552.00	31788.38
553.00	31965.48
554.00	32152.72
555.00	32737.07
556.00	33290.22
557.00	33794.22
558.00	34350.48
559.00	34651.63
560.00	34859.16
561.00	34514.32
562.00	34241.26
563.00	33706.05
564.00	33413.49
565.00	33475.12
566.00	33902.66
567.00	34147.64
568.00	34271.68
569.00	34118.77
570.00	34532.26
571.00	34979.31
572.00	35443.51
573.00	35580.04
574.00	35414.65
575.00	35473.16
576.00	35423.23
577.00	35493.44
578.00	35526.99
579.00	35427.13
580.00	35492.66
581.00	35204.00
582.00	35212.58
583.00	35097.11
584.00	35406.06
585.00	35819.56
586.00	36428.10
587.00	36815.85
588.00	36986.71
589.00	37316.72
590.00	37674.04
591.00	38124.21
592.00	38415.99
593.00	38542.38
594.00	38517.42
595.00	38380.10
596.00	38630.54
597.00	39002.69
598.00	39530.09
599.00	40015.36
600.00	40462.40
601.00	40540.42
602.00	40431.19
603.00	40374.24
604.00	40541.98
605.00	41078.74
606.00	41156.76
607.00	41449.33
608.00	41369.75
609.00	41907.29
610.00	42040.70
611.00	42421.43
612.00	42753.01
613.00	43266.36
614.00	43451.27
615.00	43303.03
616.00	43079.12
617.00	43120.47
618.00	43391.19
619.00	43590.92
620.00	43771.14
621.00	43931.08
622.00	44264.21
623.00	44492.02
624.00	44320.38
625.00	44190.87
626.00	43995.83
627.00	44232.22
628.00	44481.88
629.00	44926.58
630.00	45314.33
631.00	45180.14
632.00	44324.29
633.00	43329.56
634.00	41979.85
635.00	40350.84
636.00	38622.74
637.00	37884.69
638.00	38263.86
639.00	39336.60
640.00	40495.95
641.00	41682.60
642.00	42615.69
643.00	43434.10
644.00	44348.47
645.00	45281.56
646.00	46181.89
647.00	46728.80
648.00	47115.76
649.00	47452.80
650.00	47244.49
651.00	47061.93
652.00	46600.85
653.00	46810.71
654.00	47301.45
655.00	48385.89
656.00	49349.42
657.00	50197.47
658.00	50531.39
659.00	50926.16
660.00	51035.38
661.00	51146.95
662.00	51031.48
663.00	50753.74
664.00	50570.39
665.00	50456.49
666.00	50689.76
667.00	50389.39
668.00	50000.08
669.00	49255.01
670.00	48880.53
671.00	48771.30
672.00	49244.09
673.00	50247.40
674.00	51269.43
675.00	52005.92
676.00	52261.04
677.00	52201.75
678.00	51877.97
679.00	51545.62
680.00	51562.00
681.00	51991.10
682.00	52529.42
683.00	53072.43
684.00	53521.81
685.00	53899.42
686.00	54203.69
687.00	54308.23
688.00	54213.83
689.00	53758.98
690.00	53268.25
691.00	53077.11
692.00	53171.51
693.00	53631.82
694.00	54089.78
695.00	54529.02
696.00	54547.75
697.00	54530.58
698.00	54517.32
699.00	54710.80
700.00	54834.85
701.00	54965.92
702.00	54824.71
703.00	54607.04
704.00	53959.49
705.00	53506.21
706.00	53289.32
707.00	53549.90
708.00	54078.08
709.00	54571.93
710.00	55023.65
711.00	55334.17
712.00	55420.77
713.00	55405.16
714.00	55174.23
715.00	54847.33
716.00	54426.82
717.00	54184.96
718.00	53825.30
719.00	53839.34
720.00	53691.89
721.00	53823.74
722.00	53718.42
723.00	53631.04
724.00	53532.73
725.00	53482.02
726.00	53482.80
727.00	53813.60
728.00	53990.70
729.00	54333.20
730.00	54394.05
731.00	54658.53
732.00	54858.26
733.00	55125.08
734.00	55148.48
735.00	54971.38
736.00	54383.13
737.00	53932.18
738.00	53575.64
739.00	53741.04
740.00	54053.89
741.00	54639.03
742.00	54946.42
743.00	55160.97
744.00	55228.84
745.00	55547.93
746.00	55938.80
747.00	56387.41
748.00	56644.08
749.00	56774.37
750.00	56612.88
751.00	56360.88
752.00	56101.08
753.00	55852.98
754.00	55782.77
755.00	55722.69
756.00	55742.20
757.00	55530.77
758.00	55337.29
759.00	55053.30
760.00	54866.06
761.00	54731.87
762.00	54925.35
763.00	55306.08
764.00	55658.72
765.00	55948.95
766.00	56288.32
767.00	56612.88
768.00	56761.89
769.00	56555.14
770.00	56268.04
771.00	55987.17
772.00	55992.64
773.00	56043.35
774.00	56172.86
775.00	56117.46
776.00	56033.21
777.00	56058.17
778.00	56207.97
779.00	56616.78
780.00	56797.78
781.00	57115.31
782.00	57251.06
783.00	57293.19
784.00	57001.41
785.00	56515.36
786.00	56112.78
787.00	55946.61
788.00	55887.31
789.00	55960.65
790.00	55977.81
791.00	56090.16
792.00	56075.33
793.00	55914.62
794.00	55671.98
795.00	55505.80
796.00	55518.29
797.00	55643.90
798.00	55721.91
799.00	55828.02
800.00	55825.68
801.00	55908.38
802.00	55990.30
803.00	56172.08
804.00	56360.10
805.00	56647.21
806.00	56674.51
807.00	56373.36
808.00	55578.36
809.00	54504.84
810.00	53196.48
811.00	51765.63
812.00	50767.00
813.00	50396.42
814.00	51022.12
815.00	52143.23
816.00	53485.14
817.00	54256.74
818.00	54223.97
819.00	53648.20
820.00	53004.55
821.00	52798.58
822.00	52986.61
823.00	53589.69
824.00	54138.93
825.00	54662.43
826.00	55008.83
827.00	55487.86
828.00	55842.84
829.00	56104.98
830.00	56229.03
831.00	56241.51
832.00	56176.76
833.00	55900.57
834.00	55824.12
835.00	55829.58
836.00	56138.53
837.00	56425.64
838.00	56703.38
839.00	56764.23
840.00	56752.53
841.00	56895.30
842.00	56967.08
843.00	56888.28
844.00	56311.73
845.00	55891.99
846.00	55618.15
847.00	55593.96
848.00	55622.83
849.00	55845.96
850.00	56229.03
851.00	56748.63
852.00	57104.39
853.00	57481.22
854.00	57634.13
855.00	57680.94
856.00	57580.30
857.00	57467.95
858.00	57330.64
859.00	57155.88
860.00	57056.80
861.00	57044.32
862.00	57200.35
863.00	57273.69
864.00	57102.83
865.00	56557.49
866.00	55759.36
867.00	54781.02
868.00	53773.03
869.00	53187.89
870.00	53027.96
871.00	53299.46
872.00	53680.97
873.00	54284.82
874.00	55104.79
875.00	55728.16
876.00	56208.75
877.00	56285.98
878.00	56412.37
879.00	56659.69
880.00	56970.20
881.00	57360.29
882.00	57471.07
883.00	57659.10
884.00	57496.04
885.00	57210.49
886.00	56782.96
887.00	56487.27
888.00	56421.73
889.00	56406.91
890.00	56623.80
891.00	56897.64
892.00	57253.40
893.00	57402.42
894.00	57518.67
895.00	57620.09
896.00	57559.23
897.00	57293.19
898.00	57026.37
899.00	56865.66
900.00	56718.20
901.00	56311.73
902.00	55815.54
903.00	55190.61
904.00	54696.76
905.00	54637.47
906.00	54864.50
907.00	55336.51
908.00	55611.13
909.00	56126.83
910.00	56258.68
911.00	56267.26
912.00	55949.73
913.00	55916.96
914.00	55852.20
915.00	55933.34
916.00	55947.39
917.00	56040.23
918.00	56276.62
919.00	56454.50
920.00	56844.59
921.00	56948.35
922.00	57173.83
923.00	57082.55
924.00	56897.64
925.00	56513.80
926.00	56154.13
927.00	55735.96
928.00	55249.91
929.00	55027.56
930.00	55018.97
931.00	55317.78
932.00	55583.04
933.00	55868.59
934.00	55980.15
935.00	56046.47
936.00	56048.81
937.00	56125.27
938.00	56044.13
939.00	55974.69
940.00	55821.78
941.00	55560.42
942.00	55320.12
943.00	55042.38
944.00	54820.03
945.00	54592.22
946.00	54560.23
947.00	54419.02
948.00	54310.57
949.00	53930.62
950.00	53880.69
951.00	53757.42
952.00	53730.12
953.00	53732.46
954.00	54046.87
955.00	54400.29
956.00	54706.90
957.00	54772.44
958.00	54954.22
959.00	55050.18
960.00	55022.87
961.00	54823.93
962.00	54700.66
963.00	54618.74
964.00	54687.40
965.00	54580.51
966.00	54567.25
967.00	54589.09
968.00	54737.33
969.00	54971.38
970.00	55370.83
971.00	55732.84
972.00	55829.58
973.00	55475.38
974.00	55173.45
975.00	55040.04
976.00	55083.73
977.00	55079.05
978.00	55072.81
979.00	54973.72
980.00	54901.95
981.00	54920.67
982.00	54829.39
983.00	54774.78
984.00	54658.53
985.00	54646.83
986.00	54595.34
987.00	54552.43
988.00	54763.07
989.00	54745.13
990.00	54684.28
991.00	54246.60
992.00	53913.46
993.00	53602.95
994.00	53678.63
995.00	53847.14
996.00	54160.00
997.00	54478.31
998.00	54735.77
999.00	54851.23
1000.00	54813.79
1001.00	54805.20
1002.00	54741.23
1003.00	54671.01
1004.00	54649.95
1005.00	54660.09
1006.00	54706.90
1007.00	54637.47
1008.00	54559.45
1009.00	54305.89
1010.00	54223.97
1011.00	54068.72
1012.00	54011.76
1013.00	53854.95
1014.00	53830.76
1015.00	53865.09
1016.00	53943.11
1017.00	54353.48
1018.00	54620.30
1019.00	54836.41
1020.00	54639.81
1021.00	54426.04
1022.00	54090.56
1023.00	53685.65
1024.00	53470.32
1025.00	53604.51
1026.00	53929.06
1027.00	54046.87
1028.00	54076.52
1029.00	53911.90
1030.00	54097.58
1031.00	54273.12
1032.00	54439.30
1033.00	54439.30
1034.00	54297.31
1035.00	54439.30
1036.00	54507.18
1037.00	54540.72
1038.00	54404.19
1039.00	54198.23
1040.00	54037.51
1041.00	53777.71
1042.00	53581.88
1043.00	53466.42
1044.00	53413.37
1045.00	53382.16
1046.00	53218.32
1047.00	53027.18
1048.00	52826.67
1049.00	52724.47
1050.00	52769.72
1051.00	52817.31
1052.00	52917.17
1053.00	52988.95
1054.00	53137.18
1055.00	53126.26
1056.00	52982.71
1057.00	52533.32
1058.00	52075.36
1059.00	51573.70
1060.00	51345.11
1061.00	51275.68
1062.00	51369.30
1063.00	51584.63
1064.00	51785.13
1065.00	51799.96
1066.00	51763.29
1067.00	51689.95
1068.00	51825.70
1069.00	52083.16
1070.00	52440.48
1071.00	52761.92
1072.00	52878.16
1073.00	52932.78
1074.00	52904.69
1075.00	52524.74
1076.00	52139.33
1077.00	51737.54
1078.00	51743.78
1079.00	51720.38
1080.00	51719.60
1081.00	51798.40
1082.00	52030.11
1083.00	52282.89
1084.00	52452.19
1085.00	52466.23
1086.00	52342.96
1087.00	52235.30
1088.00	51906.06
1089.00	51785.13
1090.00	51601.79
1091.00	51640.02
1092.00	51562.78
1093.00	51529.23
1094.00	51592.43
1095.00	51671.23
1096.00	51659.52
1097.00	51479.30
1098.00	51276.46
1099.00	51148.51
1100.00	50890.27
1101.00	50494.72
1102.00	50099.17
1103.00	49904.12
1104.00	49825.32
1105.00	49981.36
1106.00	50233.36
1107.00	50397.98
1108.00	50574.30
1109.00	50702.24
1110.00	51115.74
1111.00	51190.64
1112.00	51260.85
1113.00	51252.27
1114.00	51043.18
1115.00	50737.35
1116.00	50169.38
1117.00	49958.73
1118.00	49669.29
1119.00	49572.55
1120.00	49211.32
1121.00	49276.08
1122.00	49340.83
1123.00	49454.74
1124.00	49460.98
1125.00	49407.15
1126.00	49602.19
1127.00	49499.99
1128.00	49243.31
1129.00	48781.45
1130.00	48355.47
1131.00	48004.39
1132.00	47835.87
1133.00	47504.29
1134.00	47381.02
1135.00	47202.36
1136.00	47391.95
1137.00	47722.74
1138.00	48016.09
1139.00	48469.37
1140.00	48689.38
1141.00	48793.15
1142.00	48743.22
1143.00	48901.59
1144.00	49000.68
1145.00	49027.20
1146.00	48914.86
1147.00	48861.80
1148.00	48818.11
1149.00	48765.06
1150.00	48648.03
1151.00	48631.65
1152.00	48639.45
1153.00	48736.20
1154.00	48470.93
1155.00	48163.54
1156.00	47813.24
1157.00	47716.50
1158.00	47401.31
1159.00	47143.85
1160.00	46907.46
1161.00	46767.80
1162.00	46555.60
1163.00	46422.97
1164.00	46340.27
1165.00	46496.30
1166.00	46465.88
1167.00	46636.73
1168.00	46808.37
1169.00	47001.86
1170.00	46923.06
1171.00	46957.39
1172.00	46931.64
1173.00	46969.09
1174.00	46708.51
1175.00	46471.34
1176.00	46134.30
1177.00	45773.86
1178.00	45415.76
1179.00	45184.82
1180.00	45155.96
1181.00	45071.70
1182.00	45284.68
1183.00	45364.26
1184.00	45661.51
1185.00	45688.04
1186.00	45950.18
1187.00	46204.52
1188.00	46350.41
1189.00	46355.87
1190.00	46124.94
1191.00	46121.04
1192.00	46050.82
1193.00	46052.38
1194.00	46131.18
1195.00	46227.92
1196.00	46332.46
1197.00	46306.72
1198.00	46188.13
1199.00	46172.53
1200.00	46145.22
1201.00	46436.23
1202.00	46560.28
1203.00	46735.82
1204.00	46670.28
1205.00	46743.62
1206.00	46603.97
1207.00	46606.31
1208.00	46615.67
1209.00	46635.17
1210.00	46550.91
1211.00	46366.01
1212.00	46426.87
1213.00	46476.02
1214.00	46518.15
1215.00	46407.36
