SpectraSuite Data File
++++++++++++++++++++++++++++++++++++
Date: Thu Nov 16 13:32:51 EST 2017
User: cheriyan
Dark Spectrum Present: No
Reference Spectrum Present: No
Number of Sampled Component Spectra: 1
Spectrometers: USB2+H05261
Integration Time (usec): 90000 (USB2+H05261)
Spectra Averaged: 1 (USB2+H05261)
Boxcar Smoothing: 1 (USB2+H05261)
Correct for Electrical Dark: No (USB2+H05261)
Strobe/Lamp Enabled: No (USB2+H05261)
Correct for Detector Non-linearity: No (USB2+H05261)
Correct for Stray Light: No (USB2+H05261)
Number of Pixels in Processed Spectrum: 2048
>>>>>Begin Processed Spectral Data<<<<<
0.00	372.15
1.00	372.15
2.00	340.94
3.00	308.95
4.00	276.96
5.00	266.04
6.00	249.66
7.00	233.27
8.00	254.34
9.00	275.40
10.00	273.06
11.00	253.56
12.00	241.86
13.00	243.42
14.00	234.05
15.00	233.27
16.00	247.32
17.00	247.32
18.00	241.08
19.00	245.76
20.00	288.67
21.00	340.16
22.00	383.85
23.00	832.45
24.00	2429.48
25.00	4145.87
26.00	5500.26
27.00	5639.91
28.00	5591.54
29.00	5401.18
30.00	5203.79
31.00	5100.03
32.00	5114.85
33.00	5195.21
34.00	5196.77
35.00	5040.73
36.00	4812.14
37.00	4631.14
38.00	4607.73
39.00	4702.92
40.00	4856.61
41.00	4901.86
42.00	4834.77
43.00	4730.22
44.00	4794.98
45.00	5075.84
46.00	5408.98
47.00	5721.83
48.00	5860.70
49.00	5942.62
50.00	5823.25
51.00	5746.80
52.00	5735.87
53.00	5838.08
54.00	5980.85
55.00	6156.39
56.00	6406.83
57.00	6705.63
58.00	6930.33
59.00	7137.85
60.00	7295.45
61.00	7353.96
62.00	7296.23
63.00	7020.83
64.00	6764.15
65.00	6461.44
66.00	6282.78
67.00	6099.44
68.00	5990.99
69.00	6015.18
70.00	6196.18
71.00	6450.52
72.00	6690.03
73.00	6871.03
74.00	7051.25
75.00	6997.42
76.00	6811.74
77.00	6443.49
78.00	6144.69
79.00	5848.22
80.00	5618.85
81.00	5372.31
82.00	5119.53
83.00	4938.53
84.00	4752.85
85.00	4622.56
86.00	4513.33
87.00	4495.39
88.00	4535.18
89.00	4629.58
90.00	4865.19
91.00	5235.00
92.00	5646.15
93.00	6054.97
94.00	6367.04
95.00	6542.58
96.00	6571.44
97.00	6502.01
98.00	6399.02
99.00	6284.34
100.00	6177.45
101.00	6189.94
102.00	6270.30
103.00	6445.06
104.00	6574.56
105.00	6609.67
106.00	6562.86
107.00	6525.41
108.00	6534.78
109.00	6570.66
110.00	6577.69
111.00	6594.85
112.00	6581.59
113.00	6555.84
114.00	6575.34
115.00	6725.92
116.00	7034.87
117.00	7419.50
118.00	7759.66
119.00	8147.40
120.00	8361.95
121.00	8567.92
122.00	8521.89
123.00	8527.35
124.00	8522.67
125.00	8728.64
126.00	8992.34
127.00	9281.00
128.00	9421.44
129.00	9511.16
130.00	9405.05
131.00	9245.90
132.00	8881.55
133.00	8446.21
134.00	7804.13
135.00	7096.50
136.00	6250.79
137.00	5507.28
138.00	4833.21
139.00	4627.24
140.00	4773.91
141.00	5352.81
142.00	6073.69
143.00	6877.27
144.00	7716.75
145.00	8434.51
146.00	9054.75
147.00	9519.74
148.00	9909.05
149.00	10190.69
150.00	10209.42
151.00	9958.20
152.00	9341.08
153.00	8562.46
154.00	7679.30
155.00	6829.68
156.00	6137.66
157.00	5851.34
158.00	6080.71
159.00	6868.69
160.00	7935.98
161.00	9092.98
162.00	10227.36
163.00	11127.69
164.00	11862.62
165.00	12303.42
166.00	12736.42
167.00	12989.97
168.00	13313.75
169.00	13530.64
170.00	13702.28
171.00	13698.38
172.00	13676.53
173.00	13896.54
174.00	14043.21
175.00	14250.74
176.00	14278.83
177.00	14408.34
178.00	14534.73
179.00	14804.67
180.00	15073.05
181.00	15335.97
182.00	15341.43
183.00	15410.87
184.00	15421.79
185.00	15481.86
186.00	15466.26
187.00	15389.02
188.00	15229.09
189.00	14957.58
190.00	14912.33
191.00	15021.56
192.00	15349.23
193.00	15554.42
194.00	15612.15
195.00	15463.92
196.00	15197.88
197.00	14998.93
198.00	15076.95
199.00	15165.11
200.00	15435.83
201.00	15462.36
202.00	15487.32
203.00	15297.74
204.00	15082.41
205.00	14875.66
206.00	14737.57
207.00	14831.97
208.00	15062.13
209.00	15319.59
210.00	15424.91
211.00	15417.11
212.00	15303.98
213.00	15466.26
214.00	15750.24
215.00	16303.39
216.00	16572.55
217.00	16880.72
218.00	17028.18
219.00	17318.40
220.00	17397.98
221.00	17394.86
222.00	16998.53
223.00	16454.75
224.00	15810.32
225.00	15366.40
226.00	15173.69
227.00	15248.59
228.00	15515.41
229.00	15973.38
230.00	16664.61
231.00	17369.12
232.00	17827.86
233.00	18065.82
234.00	18178.16
235.00	18402.85
236.00	18523.00
237.00	18663.43
238.00	18558.11
239.00	18422.36
240.00	18227.31
241.00	18103.26
242.00	18108.72
243.00	18189.08
244.00	18546.41
245.00	18824.93
246.00	19023.87
247.00	18964.58
248.00	18868.62
249.00	18842.87
250.00	19020.75
251.00	19164.31
252.00	19191.61
253.00	18990.33
254.00	19013.73
255.00	19320.34
256.00	19812.63
257.00	20215.21
258.00	20499.19
259.00	20620.12
260.00	20574.87
261.00	20308.83
262.00	19914.84
263.00	19499.00
264.00	19208.78
265.00	19160.41
266.00	19371.83
267.00	19573.12
268.00	19697.95
269.00	19603.55
270.00	19699.51
271.00	19775.19
272.00	20119.24
273.00	20272.94
274.00	20362.66
275.00	20184.00
276.00	19884.41
277.00	19636.31
278.00	19530.21
279.00	19712.77
280.00	20279.96
281.00	20821.41
282.00	21229.44
283.00	21521.23
284.00	21620.31
285.00	21760.74
286.00	21628.89
287.00	21405.76
288.00	21046.10
289.00	20519.48
290.00	20043.57
291.00	19564.54
292.00	19327.36
293.00	19548.93
294.00	19967.89
295.00	20292.44
296.00	20418.83
297.00	20355.64
298.00	20461.74
299.00	20467.98
300.00	20613.88
301.00	20408.69
302.00	20379.82
303.00	20319.75
304.00	20407.13
305.00	20348.62
306.00	20215.21
307.00	20155.91
308.00	20039.67
309.00	19836.04
310.00	19996.76
311.00	20242.51
312.00	20446.14
313.00	20269.04
314.00	19764.26
315.00	19243.10
316.00	18936.49
317.00	18923.23
318.00	19317.22
319.00	19424.11
320.00	19898.45
321.00	19929.66
322.00	19992.08
323.00	19671.42
324.00	19521.63
325.00	19373.39
326.00	19108.13
327.00	18821.03
328.00	18331.08
329.00	17678.85
330.00	16909.59
331.00	15932.81
332.00	15201.78
333.00	14608.06
334.00	14525.36
335.00	14707.15
336.00	15392.92
337.00	16625.61
338.00	18388.03
339.00	20256.56
340.00	21671.02
341.00	22245.23
342.00	21798.19
343.00	21237.24
344.00	20750.41
345.00	20989.14
346.00	21481.44
347.00	22193.74
348.00	22476.94
349.00	22371.62
350.00	21525.13
351.00	20503.09
352.00	19670.64
353.00	19651.92
354.00	20241.73
355.00	20986.80
356.00	21691.30
357.00	22123.52
358.00	22262.40
359.00	22472.26
360.00	22675.11
361.00	23156.48
362.00	23491.96
363.00	23982.69
364.00	24319.73
365.00	24301.78
366.00	24179.29
367.00	23854.74
368.00	23662.04
369.00	23233.72
370.00	23083.14
371.00	22747.67
372.00	22558.08
373.00	22120.40
374.00	21633.57
375.00	21143.62
376.00	20776.94
377.00	20926.73
378.00	21440.09
379.00	22216.36
380.00	22869.37
381.00	23406.14
382.00	23735.37
383.00	24102.06
384.00	23988.93
385.00	23689.34
386.00	23456.85
387.00	23696.36
388.00	24160.57
389.00	24722.30
390.00	25299.63
391.00	25819.23
392.00	26040.80
393.00	26323.22
394.00	26572.88
395.00	27008.22
396.00	27267.24
397.00	27655.77
398.00	27755.63
399.00	27869.54
400.00	27627.68
401.00	27605.06
402.00	27478.67
403.00	27760.31
404.00	27875.78
405.00	28107.49
406.00	28336.09
407.00	28285.37
408.00	27983.45
409.00	27810.25
410.00	28023.23
411.00	28253.39
412.00	27786.84
413.00	27072.20
414.00	26304.50
415.00	25942.50
416.00	25773.98
417.00	25873.06
418.00	26345.07
419.00	26686.79
420.00	27129.93
421.00	27484.13
422.00	28046.64
423.00	28480.42
424.00	28677.80
425.00	28875.97
426.00	28776.89
427.00	28634.11
428.00	28417.22
429.00	28425.81
430.00	28361.05
431.00	28226.86
432.00	28110.61
433.00	28194.87
434.00	28332.96
435.00	28507.73
436.00	28629.43
437.00	28924.34
438.00	29245.77
439.00	29773.95
440.00	30316.18
441.00	30911.46
442.00	31145.51
443.00	31152.53
444.00	30920.82
445.00	30692.22
446.00	30303.70
447.00	30144.54
448.00	30157.80
449.00	29982.26
450.00	29688.14
451.00	29095.20
452.00	28628.65
453.00	27943.66
454.00	27575.41
455.00	27523.92
456.00	27849.25
457.00	28262.75
458.00	28784.69
459.00	29247.33
460.00	29670.19
461.00	29731.05
462.00	29715.44
463.00	29450.96
464.00	29326.13
465.00	29234.07
466.00	29233.29
467.00	29461.10
468.00	29563.31
469.00	30002.55
470.00	30448.81
471.00	30927.84
472.00	31025.36
473.00	31000.40
474.00	31198.56
475.00	31415.45
476.00	31598.79
477.00	31848.45
478.00	31948.31
479.00	31934.27
480.00	31449.78
481.00	31115.86
482.00	30730.45
483.00	30519.81
484.00	30540.09
485.00	30625.91
486.00	30905.99
487.00	30910.68
488.00	30977.77
489.00	30813.15
490.00	30625.13
491.00	30650.88
492.00	30838.90
493.00	31050.33
494.00	30948.12
495.00	31094.80
496.00	31347.58
497.00	31882.78
498.00	32137.90
499.00	32304.07
500.00	32316.56
501.00	32384.43
502.00	32535.79
503.00	32634.87
504.00	32645.79
505.00	32593.52
506.00	32576.36
507.00	32912.61
508.00	33023.40
509.00	33098.30
510.00	32888.43
511.00	32733.17
512.00	32570.90
513.00	32355.57
514.00	32242.44
515.00	32225.28
516.00	31961.58
517.00	31829.73
518.00	31708.80
519.00	31551.98
520.00	31713.48
521.00	31627.66
522.00	31875.76
523.00	32077.04
524.00	32489.76
525.00	32623.17
526.00	32269.75
527.00	31772.77
528.00	31262.54
529.00	30765.56
530.00	30608.75
531.00	30696.13
532.00	31001.18
533.00	31213.38
534.00	31502.83
535.00	31782.91
536.00	31533.26
537.00	31269.56
538.00	31133.81
539.00	31480.21
540.00	31842.21
541.00	32009.95
542.00	32080.94
543.00	32110.59
544.00	32075.48
545.00	31993.56
546.00	31612.06
547.00	31315.59
548.00	31040.96
549.00	31069.05
550.00	31173.60
551.00	31281.26
552.00	31347.58
553.00	31385.80
554.00	31582.41
555.00	32098.11
556.00	32659.84
557.00	33413.49
558.00	33974.44
559.00	34365.31
560.00	34426.94
561.00	34134.37
562.00	33606.19
563.00	33197.38
564.00	32842.40
565.00	33147.45
566.00	33280.08
567.00	33355.75
568.00	33415.83
569.00	33384.62
570.00	33929.97
571.00	34382.47
572.00	34841.21
573.00	34874.76
574.00	34757.74
575.00	34809.23
576.00	34959.02
577.00	34829.51
578.00	35007.39
579.00	34813.91
580.00	34862.28
581.00	34463.61
582.00	34458.15
583.00	34461.27
584.00	34833.41
585.00	35238.33
586.00	35778.99
587.00	36136.31
588.00	36454.62
589.00	36877.48
590.00	37255.87
591.00	37746.60
592.00	38089.10
593.00	38244.35
594.00	38154.63
595.00	37755.18
596.00	37724.75
597.00	37890.15
598.00	38429.26
599.00	39137.66
600.00	39777.40
601.00	39936.56
602.00	39853.08
603.00	39782.87
604.00	40140.19
605.00	40467.08
606.00	40502.97
607.00	40592.69
608.00	40627.02
609.00	41031.93
610.00	41375.21
611.00	41702.10
612.00	42019.64
613.00	42386.32
614.00	42575.12
615.00	42590.73
616.00	42435.47
617.00	42586.83
618.00	42869.25
619.00	43040.11
620.00	43131.39
621.00	43189.91
622.00	43409.92
623.00	43823.41
624.00	43775.82
625.00	43779.72
626.00	43462.97
627.00	43629.15
628.00	43675.96
629.00	44124.56
630.00	44445.21
631.00	44394.50
632.00	43470.77
633.00	42496.33
634.00	41104.49
635.00	39579.24
636.00	37906.54
637.00	37262.89
638.00	37587.44
639.00	38625.08
640.00	39794.57
641.00	40975.76
642.00	41856.58
643.00	42646.12
644.00	43565.17
645.00	44387.48
646.00	45323.69
647.00	46035.22
648.00	46763.90
649.00	47146.19
650.00	47024.48
651.00	46690.57
652.00	45956.42
653.00	45915.07
654.00	46304.38
655.00	47533.94
656.00	48490.44
657.00	49544.46
658.00	49909.58
659.00	50349.60
660.00	50255.20
661.00	50254.42
662.00	50153.00
663.00	50048.46
664.00	50004.77
665.00	49856.53
666.00	49840.15
667.00	49663.83
668.00	49304.95
669.00	48764.28
670.00	48328.16
671.00	48269.65
672.00	48764.28
673.00	49607.65
674.00	50640.61
675.00	51308.44
676.00	51530.79
677.00	51337.31
678.00	50862.18
679.00	50803.67
680.00	50841.90
681.00	51343.55
682.00	51814.00
683.00	52521.62
684.00	53113.00
685.00	53500.75
686.00	53670.04
687.00	53794.09
688.00	53643.52
689.00	53334.57
690.00	52806.39
691.00	52609.00
692.00	52658.93
693.00	53031.86
694.00	53543.66
695.00	53836.22
696.00	53937.65
697.00	53945.45
698.00	54182.62
699.00	54322.27
700.00	54497.81
701.00	54522.00
702.00	54507.96
703.00	54094.46
704.00	53537.41
705.00	52892.99
706.00	52704.96
707.00	52737.73
708.00	53274.49
709.00	53804.23
710.00	54273.12
711.00	54648.39
712.00	54764.63
713.00	54839.53
714.00	54667.11
715.00	54396.39
716.00	53893.18
717.00	53588.91
718.00	53303.36
719.00	53382.94
720.00	53301.02
721.00	53317.40
722.00	53131.72
723.00	52957.74
724.00	52840.71
725.00	52825.89
726.00	52962.42
727.00	53255.77
728.00	53534.29
729.00	53801.89
730.00	53951.69
731.00	54177.16
732.00	54416.68
733.00	54583.63
734.00	54573.49
735.00	54302.77
736.00	53781.61
737.00	53279.17
738.00	52990.51
739.00	53197.26
740.00	53556.92
741.00	54081.20
742.00	54337.88
743.00	54401.07
744.00	54502.49
745.00	54831.73
746.00	55398.14
747.00	55769.50
748.00	55987.17
749.00	56048.81
750.00	55970.79
751.00	55786.67
752.00	55668.08
753.00	55479.28
754.00	55448.85
755.00	55263.17
756.00	55249.91
757.00	54947.20
758.00	54723.29
759.00	54340.22
760.00	54227.09
761.00	54142.05
762.00	54357.38
763.00	54650.73
764.00	55107.91
765.00	55477.72
766.00	55871.71
767.00	56206.40
768.00	56363.22
769.00	56221.23
770.00	55958.31
771.00	55663.40
772.00	55680.56
773.00	55556.52
774.00	55564.32
775.00	55524.53
776.00	55584.60
777.00	55750.00
778.00	55767.94
779.00	56060.51
780.00	56262.58
781.00	56595.71
782.00	56731.46
783.00	56728.34
784.00	56498.19
785.00	56121.37
786.00	55771.85
787.00	55494.10
788.00	55381.76
789.00	55487.08
790.00	55553.40
791.00	55569.78
792.00	55468.36
793.00	55299.06
794.00	55184.37
795.00	54935.49
796.00	54963.58
797.00	54933.15
798.00	55156.28
799.00	55328.70
800.00	55490.20
801.00	55560.42
802.00	55645.46
803.00	55804.61
804.00	55952.85
805.00	56080.02
806.00	56087.04
807.00	55820.22
808.00	55162.53
809.00	54131.13
810.00	52832.91
811.00	51436.39
812.00	50211.51
813.00	49696.59
814.00	50169.38
815.00	51455.12
816.00	52896.11
817.00	53749.62
818.00	53806.58
819.00	53167.61
820.00	52454.53
821.00	52294.59
822.00	52606.66
823.00	53263.57
824.00	53722.32
825.00	54215.39
826.00	54468.17
827.00	54864.50
828.00	55266.29
829.00	55698.51
830.00	55889.65
831.00	55810.07
832.00	55743.76
833.00	55494.10
834.00	55504.24
835.00	55446.51
836.00	55793.69
837.00	55980.93
838.00	56218.89
839.00	56257.12
840.00	56329.67
841.00	56351.52
842.00	56355.42
843.00	56229.81
844.00	55931.00
845.00	55531.55
846.00	55226.50
847.00	55048.62
848.00	55125.08
849.00	55425.45
850.00	55892.77
851.00	56269.60
852.00	56589.47
853.00	56885.94
854.00	57110.63
855.00	57271.35
856.00	57256.53
857.00	57104.39
858.00	56866.44
859.00	56593.37
860.00	56559.83
861.00	56520.82
862.00	56755.65
863.00	56735.37
864.00	56573.87
865.00	56099.52
866.00	55308.42
867.00	54385.47
868.00	53334.57
869.00	52697.16
870.00	52375.73
871.00	52724.47
872.00	53250.31
873.00	54018.78
874.00	54654.63
875.00	55190.61
876.00	55600.99
877.00	55723.47
878.00	55908.38
879.00	56114.34
880.00	56436.56
881.00	56772.81
882.00	56970.98
883.00	57160.56
884.00	57076.30
885.00	56750.97
886.00	56331.23
887.00	55942.70
888.00	55870.93
889.00	55918.52
890.00	56179.88
891.00	56534.08
892.00	56861.75
893.00	57045.88
894.00	57066.16
895.00	57052.90
896.00	56997.51
897.00	56785.30
898.00	56549.68
899.00	56438.90
900.00	56126.05
901.00	55741.42
902.00	55185.93
903.00	54681.94
904.00	54279.36
905.00	54179.50
906.00	54344.90
907.00	54685.84
908.00	55025.99
909.00	55540.91
910.00	55763.26
911.00	55744.54
912.00	55423.11
913.00	55287.35
914.00	55174.23
915.00	55382.54
916.00	55432.47
917.00	55786.67
918.00	55931.78
919.00	56160.37
920.00	56361.66
921.00	56562.17
922.00	56769.69
923.00	56631.60
924.00	56410.81
925.00	55999.66
926.00	55597.87
927.00	55155.50
928.00	54708.46
929.00	54380.79
930.00	54273.90
931.00	54572.71
932.00	54987.77
933.00	55351.33
934.00	55474.60
935.00	55505.80
936.00	55522.19
937.00	55576.80
938.00	55537.01
939.00	55581.48
940.00	55458.99
941.00	55260.83
942.00	54913.65
943.00	54617.96
944.00	54440.08
945.00	54390.15
946.00	54290.29
947.00	54031.27
948.00	53691.11
949.00	53379.04
950.00	53288.54
951.00	53298.68
952.00	53186.33
953.00	53217.54
954.00	53303.36
955.00	53758.98
956.00	54116.31
957.00	54259.08
958.00	54395.61
959.00	54423.70
960.00	54348.02
961.00	54054.67
962.00	53986.80
963.00	54051.55
964.00	54135.81
965.00	54044.53
966.00	54026.59
967.00	54120.99
968.00	54270.00
969.00	54528.24
970.00	54893.36
971.00	55221.82
972.00	55263.17
973.00	55014.29
974.00	54777.12
975.00	54700.66
976.00	54696.76
977.00	54670.23
978.00	54494.69
979.00	54411.21
980.00	54252.84
981.00	54394.83
982.00	54404.97
983.00	54429.16
984.00	54365.18
985.00	54264.54
986.00	54299.65
987.00	54213.05
988.00	54376.11
989.00	54204.47
990.00	54106.16
991.00	53641.18
992.00	53460.18
993.00	53109.88
994.00	53281.52
995.00	53457.06
996.00	53856.51
997.00	54032.05
998.00	54116.31
999.00	54220.85
1000.00	54359.72
1001.00	54440.86
1002.00	54396.39
1003.00	54161.56
1004.00	54188.08
1005.00	54106.94
1006.00	54240.35
1007.00	53979.78
1008.00	53918.92
1009.00	53549.12
1010.00	53537.41
1011.00	53374.36
1012.00	53474.22
1013.00	53399.32
1014.00	53456.28
1015.00	53527.27
1016.00	53716.86
1017.00	54026.59
1018.00	54163.90
1019.00	54248.94
1020.00	54030.49
1021.00	53840.90
1022.00	53542.88
1023.00	53117.68
1024.00	52953.06
1025.00	52969.44
1026.00	53295.56
1027.00	53477.34
1028.00	53622.45
1029.00	53645.86
1030.00	53670.82
1031.00	53743.38
1032.00	53787.85
1033.00	53843.24
1034.00	53801.11
1035.00	53886.15
1036.00	53852.61
1037.00	53815.94
1038.00	53673.95
1039.00	53627.91
1040.00	53520.25
1041.00	53442.23
1042.00	53247.19
1043.00	53043.56
1044.00	52873.48
1045.00	52785.32
1046.00	52821.21
1047.00	52594.96
1048.00	52423.32
1049.00	52090.18
1050.00	52148.70
1051.00	52178.34
1052.00	52379.63
1053.00	52597.30
1054.00	52640.21
1055.00	52601.98
1056.00	52311.75
1057.00	51920.10
1058.00	51423.91
1059.00	50867.64
1060.00	50647.63
1061.00	50478.33
1062.00	50745.94
1063.00	50892.61
1064.00	51162.55
1065.00	51207.02
1066.00	51175.03
1067.00	51242.13
1068.00	51228.09
1069.00	51397.38
1070.00	51634.56
1071.00	52005.92
1072.00	52360.90
1073.00	52366.37
1074.00	52259.48
1075.00	51844.43
1076.00	51496.47
1077.00	51185.18
1078.00	51164.89
1079.00	51118.86
1080.00	51118.86
1081.00	51212.48
1082.00	51341.21
1083.00	51436.39
1084.00	51511.29
1085.00	51642.36
1086.00	51767.97
1087.00	51753.93
1088.00	51505.05
1089.00	51367.74
1090.00	51055.67
1091.00	51020.56
1092.00	50841.90
1093.00	50852.82
1094.00	50889.49
1095.00	50948.00
1096.00	51016.66
1097.00	50876.22
1098.00	50674.16
1099.00	50490.04
1100.00	50318.40
1101.00	50035.19
1102.00	49619.36
1103.00	49348.64
1104.00	49356.44
1105.00	49539.00
1106.00	49631.06
1107.00	49734.82
1108.00	49896.32
1109.00	50063.28
1110.00	50327.76
1111.00	50502.52
1112.00	50643.73
1113.00	50649.19
1114.00	50420.60
1115.00	50192.79
1116.00	49725.46
1117.00	49397.01
1118.00	48931.24
1119.00	48613.71
1120.00	48418.66
1121.00	48487.32
1122.00	48562.22
1123.00	48629.31
1124.00	48735.41
1125.00	48793.15
1126.00	48853.22
1127.00	48769.74
1128.00	48563.00
1129.00	48261.85
1130.00	47806.22
1131.00	47474.65
1132.00	47113.42
1133.00	46771.71
1134.00	46634.39
1135.00	46553.26
1136.00	46794.33
1137.00	47072.85
1138.00	47409.11
1139.00	47905.30
1140.00	48190.85
1141.00	48431.93
1142.00	48492.78
1143.00	48453.77
1144.00	48389.02
1145.00	48183.05
1146.00	48201.77
1147.00	48060.56
1148.00	48037.16
1149.00	47802.32
1150.00	47757.85
1151.00	47696.22
1152.00	47754.73
1153.00	47817.14
1154.00	47588.55
1155.00	47236.69
1156.00	47019.80
1157.00	46781.07
1158.00	46725.67
1159.00	46452.61
1160.00	46459.63
1161.00	46266.15
1162.00	46149.90
1163.00	45990.75
1164.00	45922.09
1165.00	45837.83
1166.00	45791.80
1167.00	45957.20
1168.00	46209.20
1169.00	46465.88
1170.00	46443.25
1171.00	46415.94
1172.00	46257.57
1173.00	46182.67
1174.00	45957.20
1175.00	45766.84
1176.00	45335.40
1177.00	44963.25
1178.00	44526.35
1179.00	44396.06
1180.00	44229.88
1181.00	44346.91
1182.00	44440.53
1183.00	44662.10
1184.00	44815.80
1185.00	45043.61
1186.00	45104.46
1187.00	45321.35
1188.00	45352.56
1189.00	45554.63
1190.00	45536.68
1191.00	45582.71
1192.00	45532.78
1193.00	45521.08
1194.00	45567.11
1195.00	45530.44
1196.00	45539.80
1197.00	45530.44
1198.00	45490.65
1199.00	45615.48
1200.00	45634.99
1201.00	45803.50
1202.00	45707.54
1203.00	45962.66
1204.00	46002.45
1205.00	46241.96
1206.00	46081.25
1207.00	46111.67
1208.00	45910.39
1209.00	45977.48
1210.00	46004.79
1211.00	45854.22
1212.00	45894.78
1213.00	45768.40
1214.00	45901.03
1215.00	45585.83
