SpectraSuite Data File
++++++++++++++++++++++++++++++++++++
Date: Thu Nov 16 13:32:50 EST 2017
User: cheriyan
Dark Spectrum Present: No
Reference Spectrum Present: No
Number of Sampled Component Spectra: 1
Spectrometers: USB2+H05261
Integration Time (usec): 90000 (USB2+H05261)
Spectra Averaged: 1 (USB2+H05261)
Boxcar Smoothing: 1 (USB2+H05261)
Correct for Electrical Dark: No (USB2+H05261)
Strobe/Lamp Enabled: No (USB2+H05261)
Correct for Detector Non-linearity: No (USB2+H05261)
Correct for Stray Light: No (USB2+H05261)
Number of Pixels in Processed Spectrum: 2048
>>>>>Begin Processed Spectral Data<<<<<
0.00	311.29
1.00	311.29
2.00	319.09
3.00	301.93
4.00	283.98
5.00	281.64
6.00	282.42
7.00	302.71
8.00	300.37
9.00	291.01
10.00	273.84
11.00	245.76
12.00	253.56
13.00	244.20
14.00	254.34
15.00	273.84
16.00	298.81
17.00	317.53
18.00	312.07
19.00	290.23
20.00	292.57
21.00	294.13
22.00	314.41
23.00	722.45
24.00	2344.44
25.00	4175.52
26.00	5558.77
27.00	5695.30
28.00	5538.49
29.00	5339.54
30.00	5140.60
31.00	5110.17
32.00	5173.36
33.00	5244.36
34.00	5212.37
35.00	5056.34
36.00	4896.40
37.00	4681.07
38.00	4628.80
39.00	4694.33
40.00	4822.28
41.00	4912.78
42.00	4801.22
43.00	4738.02
44.00	4778.59
45.00	5065.70
46.00	5426.92
47.00	5678.14
48.00	5844.32
49.00	5785.80
50.00	5746.02
51.00	5683.60
52.00	5798.29
53.00	5870.84
54.00	6033.12
55.00	6175.11
56.00	6434.13
57.00	6700.95
58.00	7015.37
59.00	7225.23
60.00	7329.78
61.00	7339.92
62.00	7187.00
63.00	7002.10
64.00	6636.20
65.00	6438.81
66.00	6179.01
67.00	6095.54
68.00	5996.45
69.00	5993.33
70.00	6144.69
71.00	6378.74
72.00	6680.67
73.00	6941.25
74.00	7095.72
75.00	7034.09
76.00	6789.11
77.00	6466.90
78.00	6175.11
79.00	5928.58
80.00	5698.42
81.00	5515.86
82.00	5264.64
83.00	4959.60
84.00	4720.08
85.00	4521.13
86.00	4482.13
87.00	4489.93
88.00	4545.32
89.00	4636.60
90.00	4848.81
91.00	5252.16
92.00	5723.39
93.00	6111.14
94.00	6420.87
95.00	6580.81
96.00	6612.79
97.00	6486.40
98.00	6303.84
99.00	6182.92
100.00	6156.39
101.00	6242.21
102.00	6458.32
103.00	6614.35
104.00	6711.88
105.00	6594.07
106.00	6482.50
107.00	6457.54
108.00	6473.14
109.00	6602.65
110.00	6629.96
111.00	6700.17
112.00	6592.51
113.00	6601.87
114.00	6684.57
115.00	6904.58
116.00	7127.71
117.00	7425.74
118.00	7796.32
119.00	8139.60
120.00	8432.95
121.00	8535.15
122.00	8592.89
123.00	8559.34
124.00	8594.45
125.00	8784.81
126.00	8961.13
127.00	9318.45
128.00	9504.92
129.00	9595.42
130.00	9349.66
131.00	9022.77
132.00	8603.81
133.00	8224.64
134.00	7635.61
135.00	6938.13
136.00	6121.28
137.00	5373.87
138.00	4817.60
139.00	4564.04
140.00	4777.81
141.00	5357.49
142.00	6144.69
143.00	6927.99
144.00	7674.62
145.00	8414.23
146.00	8993.90
147.00	9530.66
148.00	9745.99
149.00	9948.84
150.00	9969.90
151.00	9789.68
152.00	9362.14
153.00	8512.53
154.00	7605.18
155.00	6688.47
156.00	6045.60
157.00	5784.24
158.00	6081.49
159.00	6844.51
160.00	7942.22
161.00	9077.38
162.00	10210.20
163.00	11113.64
164.00	11790.06
165.00	12283.13
166.00	12646.69
167.00	12961.11
168.00	13275.52
169.00	13574.33
170.00	13778.73
171.00	13879.38
172.00	13905.90
173.00	14053.36
174.00	14064.28
175.00	14175.84
176.00	14240.60
177.00	14495.72
178.00	14717.29
179.00	14974.75
180.00	15067.59
181.00	15150.29
182.00	15247.81
183.00	15443.63
184.00	15608.25
185.00	15649.60
186.00	15619.96
187.00	15645.70
188.00	15392.92
189.00	15165.11
190.00	14934.96
191.00	15064.47
192.00	15339.87
193.00	15664.43
194.00	15733.86
195.00	15563.00
196.00	15228.31
197.00	15092.55
198.00	15193.98
199.00	15345.33
200.00	15506.05
201.00	15577.05
202.00	15611.37
203.00	15466.26
204.00	15161.21
205.00	14966.17
206.00	14935.74
207.00	15044.96
208.00	15238.45
209.00	15385.12
210.00	15531.80
211.00	15350.01
212.00	15296.18
213.00	15396.04
214.00	15755.71
215.00	16060.76
216.00	16290.91
217.00	16666.95
218.00	16983.71
219.00	17347.27
220.00	17465.86
221.00	17410.46
222.00	17057.04
223.00	16466.45
224.00	15962.45
225.00	15379.66
226.00	15105.82
227.00	15171.35
228.00	15575.48
229.00	16226.93
230.00	16840.93
231.00	17515.01
232.00	17934.74
233.00	18306.11
234.00	18422.36
235.00	18648.61
236.00	18594.78
237.00	18616.62
238.00	18519.88
239.00	18409.09
240.00	18300.65
241.00	18180.50
242.00	18268.66
243.00	18268.66
244.00	18558.89
245.00	18756.27
246.00	19069.90
247.00	19008.27
248.00	18937.27
249.00	18881.88
250.00	18963.80
251.00	19027.00
252.00	19063.66
253.00	18980.18
254.00	19062.10
255.00	19326.58
256.00	19847.74
257.00	20333.01
258.00	20678.63
259.00	20682.53
260.00	20603.74
261.00	20308.83
262.00	19949.95
263.00	19512.27
264.00	19292.26
265.00	19410.06
266.00	19568.44
267.00	19798.59
268.00	19867.25
269.00	19980.37
270.00	19914.06
271.00	20015.48
272.00	20280.74
273.00	20588.91
274.00	20510.11
275.00	20320.53
276.00	20016.26
277.00	19816.54
278.00	19595.75
279.00	19713.55
280.00	20237.83
281.00	20813.60
282.00	21356.61
283.00	21634.35
284.00	21727.97
285.00	21790.39
286.00	21824.72
287.00	21699.89
288.00	21281.71
289.00	20840.91
290.00	20212.09
291.00	19687.81
292.00	19169.77
293.00	19475.60
294.00	19859.45
295.00	20341.60
296.00	20535.08
297.00	20535.86
298.00	20652.11
299.00	20751.19
300.00	21051.56
301.00	20825.31
302.00	20532.74
303.00	20317.41
304.00	20350.96
305.00	20407.13
306.00	20173.08
307.00	20078.68
308.00	19816.54
309.00	19797.81
310.00	19988.18
311.00	20315.07
312.00	20507.77
313.00	20293.22
314.00	19797.03
315.00	19229.84
316.00	18949.76
317.00	19005.15
318.00	19325.02
319.00	19592.62
320.00	19947.61
321.00	20077.90
322.00	19989.74
323.00	19740.86
324.00	19476.38
325.00	19290.70
326.00	19111.25
327.00	18944.30
328.00	18388.81
329.00	17697.57
330.00	16794.12
331.00	16031.89
332.00	15301.64
333.00	14784.38
334.00	14624.45
335.00	14862.40
336.00	15505.27
337.00	16741.07
338.00	18448.88
339.00	20307.27
340.00	21694.43
341.00	22129.77
342.00	21774.78
343.00	21165.46
344.00	20697.36
345.00	20865.10
346.00	21345.69
347.00	21974.51
348.00	22336.51
349.00	22202.32
350.00	21616.41
351.00	20641.96
352.00	19880.51
353.00	19862.57
354.00	20311.95
355.00	21044.54
356.00	21571.94
357.00	22071.25
358.00	22421.55
359.00	22619.72
360.00	22744.55
361.00	23181.45
362.00	23548.13
363.00	23972.55
364.00	24122.34
365.00	24258.87
366.00	24222.20
367.00	24131.70
368.00	23881.27
369.00	23502.88
370.00	23149.46
371.00	22940.37
372.00	22650.92
373.00	22222.61
374.00	21708.47
375.00	21321.50
376.00	20971.98
377.00	21003.19
378.00	21416.68
379.00	22132.89
380.00	22772.63
381.00	23513.80
382.00	23976.45
383.00	24294.76
384.00	24052.13
385.00	23729.13
386.00	23543.45
387.00	23872.68
388.00	24499.95
389.00	25163.88
390.00	25749.79
391.00	26031.44
392.00	26291.24
393.00	26513.59
394.00	26888.85
395.00	27199.37
396.00	27384.27
397.00	27762.65
398.00	27896.07
399.00	28051.32
400.00	27721.31
401.00	27751.73
402.00	27606.62
403.00	27912.45
404.00	28041.18
405.00	28258.07
406.00	28357.93
407.00	28257.29
408.00	28024.79
409.00	27929.61
410.00	28071.61
411.00	28355.59
412.00	27960.04
413.00	27236.81
414.00	26455.08
415.00	26004.13
416.00	25958.10
417.00	26037.68
418.00	26466.00
419.00	26768.71
420.00	27253.98
421.00	27715.84
422.00	28180.05
423.00	28591.20
424.00	28892.35
425.00	29006.26
426.00	28953.21
427.00	28591.20
428.00	28471.84
429.00	28360.27
430.00	28589.64
431.00	28590.42
432.00	28513.19
433.00	28300.98
434.00	28345.45
435.00	28582.62
436.00	28887.67
437.00	29145.91
438.00	29433.80
439.00	29908.15
440.00	30519.03
441.00	30859.96
442.00	30993.37
443.00	30814.71
444.00	30756.98
445.00	30520.59
446.00	30400.44
447.00	30334.90
448.00	30270.93
449.00	30093.05
450.00	29775.52
451.00	29300.39
452.00	28638.01
453.00	28018.55
454.00	27663.57
455.00	27771.24
456.00	28172.25
457.00	28721.49
458.00	29179.46
459.00	29371.38
460.00	29706.08
461.00	29877.72
462.00	29910.49
463.00	29663.17
464.00	29398.69
465.00	29263.72
466.00	29137.33
467.00	29479.83
468.00	29686.57
469.00	30275.61
470.00	30536.97
471.00	30904.43
472.00	30984.01
473.00	30980.11
474.00	31243.03
475.00	31346.01
476.00	31683.83
477.00	32003.71
478.00	32132.43
479.00	32119.17
480.00	31489.57
481.00	31105.72
482.00	30572.86
483.00	30459.73
484.00	30616.55
485.00	30914.58
486.00	31184.52
487.00	31254.73
488.00	31162.67
489.00	31062.03
490.00	30885.71
491.00	30973.09
492.00	31100.26
493.00	31094.02
494.00	31084.65
495.00	31179.06
496.00	31509.85
497.00	31913.98
498.00	32120.73
499.00	32348.54
500.00	32279.89
501.00	32435.92
502.00	32452.31
503.00	32591.96
504.00	32732.39
505.00	32829.13
506.00	32944.60
507.00	32978.93
508.00	32979.71
509.00	32828.35
510.00	32811.97
511.00	32736.29
512.00	32728.49
513.00	32442.17
514.00	32346.98
515.00	32238.54
516.00	32187.05
517.00	31931.15
518.00	31633.12
519.00	31283.60
520.00	31456.02
521.00	31605.03
522.00	31811.78
523.00	32020.09
524.00	32315.78
525.00	32737.85
526.00	32357.13
527.00	31862.49
528.00	31075.29
529.00	30764.00
530.00	30612.65
531.00	30792.87
532.00	30882.59
533.00	31118.98
534.00	31310.13
535.00	31835.19
536.00	31598.79
537.00	31567.59
538.00	31488.79
539.00	31995.12
540.00	32128.53
541.00	32039.59
542.00	31878.88
543.00	31931.15
544.00	31899.16
545.00	31887.46
546.00	31538.72
547.00	31221.19
548.00	30971.53
549.00	31009.76
550.00	31072.95
551.00	31118.98
552.00	31202.46
553.00	31445.10
554.00	31828.95
555.00	32265.07
556.00	32668.42
557.00	33262.13
558.00	33801.24
559.00	34236.58
560.00	34328.64
561.00	34167.92
562.00	33813.72
563.00	33472.78
564.00	33243.41
565.00	33245.75
566.00	33454.84
567.00	33426.75
568.00	33621.80
569.00	33464.20
570.00	33983.02
571.00	34355.94
572.00	34919.23
573.00	34932.50
574.00	34952.78
575.00	34933.28
576.00	35145.48
577.00	35167.33
578.00	35341.31
579.00	35037.04
580.00	34961.36
581.00	34635.25
582.00	34671.92
583.00	34644.61
584.00	34837.31
585.00	35382.66
586.00	35978.72
587.00	36419.52
588.00	36527.18
589.00	36771.38
590.00	37148.20
591.00	37690.43
592.00	38192.86
593.00	38398.05
594.00	38238.11
595.00	37863.63
596.00	37822.28
597.00	38146.05
598.00	38955.88
599.00	39730.59
600.00	40098.06
601.00	39987.27
602.00	39689.24
603.00	39761.02
604.00	40019.26
605.00	40554.46
606.00	40617.66
607.00	40826.74
608.00	40835.33
609.00	41256.62
610.00	41446.21
611.00	41720.83
612.00	42034.46
613.00	42515.05
614.00	42784.99
615.00	42865.35
616.00	42589.17
617.00	42433.91
618.00	42544.70
619.00	42738.18
620.00	42969.90
621.00	43115.01
622.00	43452.05
623.00	43828.09
624.00	43822.63
625.00	43477.79
626.00	43306.93
627.00	43514.46
628.00	43754.75
629.00	44148.74
630.00	44421.81
631.00	44494.36
632.00	43668.94
633.00	42813.08
634.00	41649.83
635.00	40050.47
636.00	38156.19
637.00	37160.69
638.00	37496.94
639.00	38578.27
640.00	39778.96
641.00	40902.42
642.00	41902.61
643.00	42790.45
644.00	43750.85
645.00	44559.90
646.00	45414.19
647.00	46021.17
648.00	46647.66
649.00	46930.08
650.00	46841.92
651.00	46456.51
652.00	45965.78
653.00	46116.36
654.00	46653.90
655.00	47673.59
656.00	48548.95
657.00	49514.03
658.00	49975.12
659.00	50408.12
660.00	50352.72
661.00	50365.21
662.00	50199.03
663.00	50181.09
664.00	50122.57
665.00	50032.07
666.00	50073.42
667.00	49969.66
668.00	49468.00
669.00	48745.56
670.00	48176.81
671.00	48285.25
672.00	48843.86
673.00	49809.72
674.00	50813.81
675.00	51508.17
676.00	51752.37
677.00	51596.33
678.00	51223.40
679.00	51006.51
680.00	51003.39
681.00	51367.74
682.00	51990.32
683.00	52617.58
684.00	53155.13
685.00	53510.11
686.00	53681.75
687.00	53782.39
688.00	53531.95
689.00	53266.69
690.00	52954.62
691.00	52850.86
692.00	52878.94
693.00	53061.51
694.00	53489.04
695.00	53819.84
696.00	54005.52
697.00	54021.90
698.00	54148.29
699.00	54267.66
700.00	54521.22
701.00	54637.47
702.00	54491.57
703.00	54119.43
704.00	53573.30
705.00	53129.38
706.00	52871.14
707.00	52989.73
708.00	53459.40
709.00	53957.15
710.00	54375.33
711.00	54748.25
712.00	54930.81
713.00	54908.97
714.00	54730.31
715.00	54467.39
716.00	54202.91
717.00	53796.43
718.00	53446.91
719.00	53148.89
720.00	53094.27
721.00	53070.87
722.00	53037.32
723.00	52859.44
724.00	52818.09
725.00	52821.21
726.00	52969.44
727.00	53270.59
728.00	53614.65
729.00	53968.85
730.00	54078.08
731.00	54152.97
732.00	54322.27
733.00	54532.92
734.00	54584.41
735.00	54287.17
736.00	53723.88
737.00	53372.02
738.00	53175.41
739.00	53388.40
740.00	53695.01
741.00	54208.37
742.00	54526.68
743.00	54705.34
744.00	54799.74
745.00	55156.28
746.00	55505.80
747.00	55868.59
748.00	55952.85
749.00	56125.27
750.00	56158.03
751.00	55970.79
752.00	55786.67
753.00	55386.44
754.00	55362.25
755.00	55056.42
756.00	55145.36
757.00	54952.66
758.00	54902.73
759.00	54564.13
760.00	54248.16
761.00	54110.85
762.00	54282.48
763.00	54626.54
764.00	55084.51
765.00	55427.01
766.00	55885.75
767.00	56150.23
768.00	56287.54
769.00	56190.80
770.00	55925.54
771.00	55650.92
772.00	55596.31
773.00	55638.43
774.00	55721.13
775.00	55622.05
776.00	55547.93
777.00	55655.60
778.00	55806.17
779.00	56113.56
780.00	56359.32
781.00	56675.29
782.00	56793.88
783.00	56728.34
784.00	56499.75
785.00	56136.19
786.00	55799.93
787.00	55444.95
788.00	55364.59
789.00	55454.31
790.00	55558.86
791.00	55686.03
792.00	55581.48
793.00	55428.57
794.00	55226.50
795.00	55052.52
796.00	55050.18
797.00	55036.92
798.00	55182.03
799.00	55256.15
800.00	55426.23
801.00	55403.60
802.00	55595.52
803.00	55657.94
804.00	55916.96
805.00	56059.73
806.00	56162.71
807.00	55863.13
808.00	55153.16
809.00	54081.20
810.00	52882.84
811.00	51481.64
812.00	50277.83
813.00	49725.46
814.00	50256.76
815.00	51534.70
816.00	52939.02
817.00	53796.43
818.00	53801.11
819.00	53251.87
820.00	52631.63
821.00	52358.56
822.00	52573.11
823.00	53067.75
824.00	53705.93
825.00	54220.85
826.00	54647.61
827.00	54949.54
828.00	55231.18
829.00	55580.70
830.00	55903.70
831.00	55973.13
832.00	55870.15
833.00	55538.57
834.00	55472.26
835.00	55491.76
836.00	55774.19
837.00	56055.83
838.00	56231.37
839.00	56269.60
840.00	56366.34
841.00	56458.40
842.00	56560.61
843.00	56287.54
844.00	55929.44
845.00	55591.62
846.00	55419.98
847.00	55298.28
848.00	55244.44
849.00	55384.10
850.00	55671.98
851.00	56051.15
852.00	56519.26
853.00	56892.18
854.00	57154.32
855.00	57222.20
856.00	57216.74
857.00	57143.40
858.00	56996.73
859.00	56847.71
860.00	56716.64
861.00	56587.91
862.00	56745.51
863.00	56798.56
864.00	56782.96
865.00	56168.96
866.00	55339.63
867.00	54305.11
868.00	53455.50
869.00	52813.41
870.00	52575.45
871.00	52788.44
872.00	53333.79
873.00	53971.19
874.00	54602.36
875.00	55143.02
876.00	55605.67
877.00	55778.87
878.00	55877.17
879.00	55988.74
880.00	56375.70
881.00	56792.32
882.00	57080.99
883.00	57134.04
884.00	56988.92
885.00	56701.04
886.00	56310.17
887.00	55986.39
888.00	55863.91
889.00	55986.39
890.00	56288.32
891.00	56564.51
892.00	56879.70
893.00	56972.54
894.00	57163.68
895.00	57162.90
896.00	57130.92
897.00	56890.62
898.00	56677.63
899.00	56521.60
900.00	56243.07
901.00	55714.89
902.00	55143.02
903.00	54552.43
904.00	54191.20
905.00	54112.41
906.00	54369.86
907.00	54887.90
908.00	55295.16
909.00	55728.16
910.00	55782.77
911.00	55704.75
912.00	55471.48
913.00	55332.60
914.00	55341.19
915.00	55469.92
916.00	55618.93
917.00	55801.49
918.00	55984.83
919.00	56146.33
920.00	56419.39
921.00	56674.51
922.00	56868.78
923.00	56769.69
924.00	56410.03
925.00	56019.16
926.00	55703.19
927.00	55364.59
928.00	54910.53
929.00	54560.23
930.00	54478.31
931.00	54790.38
932.00	55138.34
933.00	55475.38
934.00	55605.67
935.00	55585.38
936.00	55625.17
937.00	55710.21
938.00	55658.72
939.00	55510.49
940.00	55377.86
941.00	55152.38
942.00	54983.87
943.00	54696.76
944.00	54578.17
945.00	54224.75
946.00	54084.32
947.00	53833.10
948.00	53872.89
949.00	53676.29
950.00	53631.82
951.00	53432.87
952.00	53245.63
953.00	53275.27
954.00	53472.66
955.00	53820.62
956.00	54081.98
957.00	54251.28
958.00	54580.51
959.00	54739.67
960.00	54679.60
961.00	54363.62
962.00	54275.46
963.00	54204.47
964.00	54203.69
965.00	54018.78
966.00	54047.65
967.00	54218.51
968.00	54443.98
969.00	54617.96
970.00	54910.53
971.00	55146.92
972.00	55322.46
973.00	55111.81
974.00	54880.10
975.00	54774.78
976.00	54674.91
977.00	54639.81
978.00	54520.44
979.00	54497.03
980.00	54494.69
981.00	54611.72
982.00	54624.20
983.00	54573.49
984.00	54421.36
985.00	54304.33
986.00	54248.16
987.00	54078.08
988.00	54206.81
989.00	54071.84
990.00	54072.62
991.00	53717.64
992.00	53495.28
993.00	53277.61
994.00	53373.58
995.00	53535.85
996.00	53766.01
997.00	53938.43
998.00	54125.67
999.00	54172.48
1000.00	54155.32
1001.00	54280.92
1002.00	54325.39
1003.00	54287.95
1004.00	54266.10
1005.00	54319.93
1006.00	54343.34
1007.00	54186.52
1008.00	54041.41
1009.00	53848.71
1010.00	53704.37
1011.00	53531.17
1012.00	53503.87
1013.00	53372.80
1014.00	53387.62
1015.00	53482.80
1016.00	53702.03
1017.00	54032.05
1018.00	54167.80
1019.00	54291.07
1020.00	54115.53
1021.00	53958.71
1022.00	53584.22
1023.00	53190.23
1024.00	52903.91
1025.00	52981.93
1026.00	53215.98
1027.00	53476.56
1028.00	53662.24
1029.00	53749.62
1030.00	53728.56
1031.00	53821.40
1032.00	53908.78
1033.00	54036.73
1034.00	53961.05
1035.00	53870.55
1036.00	53930.62
1037.00	53887.71
1038.00	53912.68
1039.00	53738.70
1040.00	53609.97
1041.00	53419.61
1042.00	53327.55
1043.00	53215.98
1044.00	53168.39
1045.00	53010.01
1046.00	52802.49
1047.00	52515.38
1048.00	52336.72
1049.00	52228.27
1050.00	52297.71
1051.00	52257.92
1052.00	52573.89
1053.00	52699.50
1054.00	52791.56
1055.00	52580.92
1056.00	52416.30
1057.00	52067.56
1058.00	51630.66
1059.00	51066.59
1060.00	50877.01
1061.00	50759.98
1062.00	50952.68
1063.00	51164.89
1064.00	51222.62
1065.00	51121.20
1066.00	50874.66
1067.00	50969.85
1068.00	51182.84
1069.00	51495.69
1070.00	51778.11
1071.00	52215.01
1072.00	52594.96
1073.00	52655.81
1074.00	52388.21
1075.00	51971.60
1076.00	51612.71
1077.00	51344.33
1078.00	51237.45
1079.00	51203.12
1080.00	51161.77
1081.00	51279.58
1082.00	51419.23
1083.00	51690.73
1084.00	51777.33
1085.00	51933.37
1086.00	51927.13
1087.00	51885.78
1088.00	51515.97
1089.00	51331.07
1090.00	50987.01
1091.00	50983.11
1092.00	50862.18
1093.00	50862.18
1094.00	51010.42
1095.00	50971.41
1096.00	51046.30
1097.00	50983.11
1098.00	50929.28
1099.00	50599.26
1100.00	50153.78
1101.00	49803.48
1102.00	49620.92
1103.00	49550.70
1104.00	49482.05
1105.00	49585.03
1106.00	49650.56
1107.00	49887.74
1108.00	50050.02
1109.00	50337.90
1110.00	50536.07
1111.00	50575.08
1112.00	50619.55
1113.00	50575.08
1114.00	50500.18
1115.00	50241.16
1116.00	49888.52
1117.00	49514.03
1118.00	49072.45
1119.00	48745.56
1120.00	48666.76
1121.00	48609.81
1122.00	48751.80
1123.00	48849.32
1124.00	48999.90
1125.00	48857.12
1126.00	48786.91
1127.00	48782.23
1128.00	48637.11
1129.00	48259.51
1130.00	47934.95
1131.00	47499.61
1132.00	47239.03
1133.00	46685.11
1134.00	46738.16
1135.00	46527.51
1136.00	46811.49
1137.00	46948.81
1138.00	47366.20
1139.00	47746.93
1140.00	48029.35
1141.00	48261.85
1142.00	48446.75
1143.00	48488.10
1144.00	48540.37
1145.00	48439.73
1146.00	48392.14
1147.00	48229.86
1148.00	48072.26
1149.00	47983.32
1150.00	48076.16
1151.00	48126.88
1152.00	48166.66
1153.00	48038.72
1154.00	47707.92
1155.00	47410.67
1156.00	47020.58
1157.00	46860.65
1158.00	46577.44
1159.00	46476.80
1160.00	46330.12
1161.00	46195.93
1162.00	45993.87
1163.00	45748.11
1164.00	45726.27
1165.00	45850.31
1166.00	45934.57
1167.00	46136.64
1168.00	46299.70
1169.00	46387.08
1170.00	46401.90
1171.00	46219.34
1172.00	46149.12
1173.00	46071.10
1174.00	45925.21
1175.00	45823.01
1176.00	45501.57
1177.00	45131.77
1178.00	44811.12
1179.00	44419.47
1180.00	44372.66
1181.00	44392.16
1182.00	44602.81
1183.00	44729.98
1184.00	44977.29
1185.00	45155.18
1186.00	45383.77
1187.00	45581.93
1188.00	45666.19
1189.00	45784.00
1190.00	45595.98
1191.00	45622.50
1192.00	45464.13
1193.00	45447.74
1194.00	45492.21
1195.00	45730.95
1196.00	45786.34
1197.00	45769.96
1198.00	45659.95
1199.00	45547.61
1200.00	45495.33
1201.00	45504.70
1202.00	45662.29
1203.00	45841.73
1204.00	45926.77
1205.00	46058.62
1206.00	45996.21
1207.00	46077.35
1208.00	46044.58
1209.00	46025.07
1210.00	45914.29
1211.00	45879.18
1212.00	45988.41
1213.00	45948.62
1214.00	45737.97
1215.00	45581.93
