SpectraSuite Data File
++++++++++++++++++++++++++++++++++++
Date: Thu Nov 16 13:32:49 EST 2017
User: cheriyan
Dark Spectrum Present: No
Reference Spectrum Present: No
Number of Sampled Component Spectra: 1
Spectrometers: USB2+H05261
Integration Time (usec): 90000 (USB2+H05261)
Spectra Averaged: 1 (USB2+H05261)
Boxcar Smoothing: 1 (USB2+H05261)
Correct for Electrical Dark: No (USB2+H05261)
Strobe/Lamp Enabled: No (USB2+H05261)
Correct for Detector Non-linearity: No (USB2+H05261)
Correct for Stray Light: No (USB2+H05261)
Number of Pixels in Processed Spectrum: 2048
>>>>>Begin Processed Spectral Data<<<<<
0.00	358.10
1.00	358.10
2.00	330.80
3.00	293.35
4.00	271.50
5.00	297.25
6.00	316.75
7.00	310.51
8.00	259.02
9.00	259.80
10.00	226.25
11.00	236.39
12.00	224.69
13.00	267.60
14.00	280.08
15.00	287.89
16.00	291.79
17.00	298.03
18.00	281.64
19.00	267.60
20.00	271.50
21.00	310.51
22.00	315.97
23.00	793.44
24.00	2435.72
25.00	4188.78
26.00	5559.55
27.00	5671.12
28.00	5621.19
29.00	5421.46
30.00	5274.79
31.00	5199.89
32.00	5193.65
33.00	5242.02
34.00	5235.00
35.00	5104.71
36.00	4830.09
37.00	4631.14
38.00	4567.95
39.00	4680.29
40.00	4830.87
41.00	4915.91
42.00	4941.65
43.00	4912.00
44.00	4953.35
45.00	5061.02
46.00	5295.85
47.00	5561.89
48.00	5778.00
49.00	5864.60
50.00	5864.60
51.00	5850.56
52.00	5841.20
53.00	5903.61
54.00	6069.01
55.00	6321.79
56.00	6544.92
57.00	6812.52
58.00	7034.09
59.00	7326.66
60.00	7455.39
61.00	7507.66
62.00	7321.20
63.00	7083.24
64.00	6812.52
65.00	6595.63
66.00	6307.74
67.00	6126.74
68.00	5973.83
69.00	6036.24
70.00	6207.88
71.00	6514.49
72.00	6824.22
73.00	6988.06
74.00	7112.89
75.00	7009.90
76.00	6827.34
77.00	6463.78
78.00	6176.67
79.00	5898.93
80.00	5703.11
81.00	5462.81
82.00	5192.09
83.00	4928.39
84.00	4740.37
85.00	4625.68
86.00	4517.23
87.00	4455.60
88.00	4511.77
89.00	4652.98
90.00	4892.50
91.00	5277.13
92.00	5767.86
93.00	6193.06
94.00	6481.72
95.00	6647.12
96.00	6755.57
97.00	6668.19
98.00	6580.03
99.00	6423.99
100.00	6414.63
101.00	6389.66
102.00	6511.37
103.00	6620.60
104.00	6739.96
105.00	6680.67
106.00	6579.25
107.00	6526.97
108.00	6649.46
109.00	6777.41
110.00	6794.58
111.00	6709.54
112.00	6601.87
113.00	6636.98
114.00	6740.74
115.00	6938.91
116.00	7181.54
117.00	7512.34
118.00	7861.86
119.00	8254.29
120.00	8498.49
121.00	8578.84
122.00	8515.65
123.00	8532.81
124.00	8679.49
125.00	8872.97
126.00	9131.21
127.00	9480.73
128.00	9700.74
129.00	9698.40
130.00	9454.98
131.00	9146.03
132.00	8691.97
133.00	8258.19
134.00	7706.60
135.00	7091.82
136.00	6270.30
137.00	5446.43
138.00	4897.96
139.00	4737.24
140.00	4990.80
141.00	5460.47
142.00	6173.55
143.00	6953.73
144.00	7790.08
145.00	8494.58
146.00	9187.38
147.00	9746.77
148.00	10067.42
149.00	10253.89
150.00	10225.02
151.00	10009.69
152.00	9497.11
153.00	8681.83
154.00	7801.79
155.00	6885.86
156.00	6202.42
157.00	5881.77
158.00	6132.20
159.00	6912.38
160.00	8031.94
161.00	9202.21
162.00	10282.75
163.00	11191.66
164.00	11873.54
165.00	12359.59
166.00	12770.74
167.00	13051.61
168.00	13508.01
169.00	13804.48
170.00	14038.53
171.00	14011.23
172.00	13942.57
173.00	14062.72
174.00	14129.81
175.00	14288.19
176.00	14318.62
177.00	14523.80
178.00	14779.70
179.00	15115.18
180.00	15232.21
181.00	15360.16
182.00	15357.82
183.00	15475.62
184.00	15513.85
185.00	15623.08
186.00	15628.54
187.00	15599.67
188.00	15426.47
189.00	15250.15
190.00	15123.76
191.00	15160.43
192.00	15388.24
193.00	15712.02
194.00	15849.33
195.00	15781.45
196.00	15445.98
197.00	15253.27
198.00	15221.28
199.00	15397.60
200.00	15573.92
201.00	15737.76
202.00	15671.45
203.00	15497.47
204.00	15298.52
205.00	15259.51
206.00	15186.18
207.00	15203.34
208.00	15253.27
209.00	15512.29
210.00	15697.97
211.00	15650.38
212.00	15557.54
213.00	15623.86
214.00	16021.75
215.00	16346.30
216.00	16583.48
217.00	16766.04
218.00	17109.32
219.00	17409.68
220.00	17710.83
221.00	17631.26
222.00	17353.51
223.00	16649.79
224.00	16033.45
225.00	15428.03
226.00	15193.98
227.00	15313.34
228.00	15738.54
229.00	16271.40
230.00	16937.68
231.00	17530.61
232.00	18061.91
233.00	18349.80
234.00	18551.09
235.00	18660.31
236.00	18728.97
237.00	18839.75
238.00	18931.81
239.00	18827.27
240.00	18633.78
241.00	18430.16
242.00	18497.25
243.00	18537.04
244.00	18867.84
245.00	18970.82
246.00	19184.59
247.00	19100.33
248.00	19038.70
249.00	19065.22
250.00	19146.36
251.00	19330.48
252.00	19366.37
253.00	19261.83
254.00	19321.12
255.00	19637.09
256.00	20153.57
257.00	20553.02
258.00	20824.53
259.00	20928.29
260.00	20801.90
261.00	20513.24
262.00	20052.93
263.00	19754.12
264.00	19473.26
265.00	19530.21
266.00	19558.30
267.00	19741.64
268.00	19864.91
269.00	20009.24
270.00	20096.62
271.00	20139.53
272.00	20411.81
273.00	20638.84
274.00	20652.89
275.00	20524.94
276.00	20198.82
277.00	19946.83
278.00	19748.66
279.00	19891.43
280.00	20432.10
281.00	20994.61
282.00	21566.48
283.00	21863.72
284.00	22008.84
285.00	21880.89
286.00	21894.93
287.00	21572.72
288.00	21423.70
289.00	20930.63
290.00	20446.14
291.00	19778.31
292.00	19525.53
293.00	19797.81
294.00	20292.44
295.00	20663.81
296.00	20773.03
297.00	20738.71
298.00	20832.33
299.00	20968.08
300.00	21162.34
301.00	20865.88
302.00	20672.39
303.00	20515.58
304.00	20547.56
305.00	20522.60
306.00	20323.65
307.00	20187.12
308.00	20031.08
309.00	20086.48
310.00	20306.49
311.00	20683.31
312.00	20699.70
313.00	20553.80
314.00	19897.67
315.00	19295.38
316.00	18899.05
317.00	18978.62
318.00	19381.98
319.00	19679.22
320.00	19944.48
321.00	19975.69
322.00	19878.17
323.00	19637.87
324.00	19385.10
325.00	19261.05
326.00	19116.72
327.00	18986.43
328.00	18463.71
329.00	17802.89
330.00	16961.08
331.00	16074.02
332.00	15345.33
333.00	14824.17
334.00	14757.08
335.00	15048.86
336.00	15720.60
337.00	16827.67
338.00	18508.96
339.00	20280.74
340.00	21824.72
341.00	22415.31
342.00	22128.98
343.00	21493.92
344.00	20961.06
345.00	21153.76
346.00	21671.02
347.00	22313.11
348.00	22622.84
349.00	22413.75
350.00	21653.08
351.00	20729.34
352.00	20006.12
353.00	19986.61
354.00	20514.80
355.00	21304.34
356.00	21839.54
357.00	22275.66
358.00	22380.98
359.00	22649.36
360.00	22793.70
361.00	23278.19
362.00	23662.82
363.00	24125.46
364.00	24464.06
365.00	24680.17
366.00	24518.67
367.00	24298.66
368.00	23949.92
369.00	23619.91
370.00	23316.42
371.00	23065.98
372.00	22977.04
373.00	22542.48
374.00	21915.22
375.00	21385.47
376.00	21125.68
377.00	21387.82
378.00	21823.16
379.00	22407.51
380.00	23070.66
381.00	23665.94
382.00	24186.32
383.00	24383.70
384.00	24155.89
385.00	23946.80
386.00	23686.22
387.00	23846.94
388.00	24143.41
389.00	24867.41
390.00	25564.89
391.00	26036.90
392.00	26282.66
393.00	26599.41
394.00	27059.71
395.00	27383.49
396.00	27644.07
397.00	27866.42
398.00	28036.50
399.00	28189.41
400.00	27964.72
401.00	27966.28
402.00	27900.75
403.00	28198.77
404.00	28335.31
405.00	28297.08
406.00	28455.45
407.00	28430.49
408.00	28259.63
409.00	28102.03
410.00	28298.64
411.00	28526.45
412.00	28111.39
413.00	27303.91
414.00	26686.01
415.00	26258.47
416.00	26175.77
417.00	26271.73
418.00	26780.41
419.00	27175.96
420.00	27566.05
421.00	27994.37
422.00	28410.98
423.00	28737.88
424.00	28867.39
425.00	29170.10
426.00	29171.66
427.00	28881.43
428.00	28543.61
429.00	28570.92
430.00	28814.34
431.00	28870.51
432.00	28761.28
433.00	28716.81
434.00	28694.19
435.00	28879.09
436.00	29021.08
437.00	29369.04
438.00	29660.83
439.00	30196.03
440.00	30717.97
441.00	31214.94
442.00	31392.83
443.00	31271.90
444.00	31175.16
445.00	30948.12
446.00	30751.52
447.00	30611.09
448.00	30560.37
449.00	30411.36
450.00	30069.64
451.00	29490.75
452.00	28804.19
453.00	28217.50
454.00	27885.92
455.00	27983.44
456.00	28278.35
457.00	28798.73
458.00	29272.30
459.00	29579.69
460.00	29876.94
461.00	30099.29
462.00	30197.59
463.00	29972.12
464.00	29782.54
465.00	29489.97
466.00	29564.09
467.00	29750.55
468.00	30124.26
469.00	30531.51
470.00	30943.44
471.00	31289.84
472.00	31366.30
473.00	31327.29
474.00	31461.48
475.00	31603.47
476.00	31811.78
477.00	31982.64
478.00	32103.57
479.00	32121.51
480.00	31761.85
481.00	31402.97
482.00	31000.40
483.00	30813.93
484.00	30863.86
485.00	31079.97
486.00	31307.79
487.00	31399.07
488.00	31338.21
489.00	31303.10
490.00	31211.04
491.00	31181.40
492.00	31294.52
493.00	31419.35
494.00	31525.46
495.00	31616.74
496.00	31970.16
497.00	32285.35
498.00	32519.40
499.00	32589.62
500.00	32522.52
501.00	32602.10
502.00	32758.92
503.00	32972.69
504.00	33067.09
505.00	33052.27
506.00	33034.32
507.00	33176.31
508.00	33186.46
509.00	33217.66
510.00	33198.94
511.00	33062.41
512.00	33114.68
513.00	32954.74
514.00	32886.87
515.00	32625.51
516.00	32350.10
517.00	32000.58
518.00	31803.98
519.00	31569.93
520.00	31775.89
521.00	31872.64
522.00	32024.77
523.00	32293.15
524.00	32671.54
525.00	33053.05
526.00	32756.58
527.00	32258.04
528.00	31601.13
529.00	31201.68
530.00	31070.61
531.00	31076.85
532.00	31257.85
533.00	31512.97
534.00	31873.42
535.00	32283.01
536.00	32083.28
537.00	31823.48
538.00	31772.77
539.00	32162.86
540.00	32405.50
541.00	32270.53
542.00	32236.98
543.00	32264.28
544.00	32315.78
545.00	32171.44
546.00	31897.60
547.00	31763.41
548.00	31268.78
549.00	31319.49
550.00	31267.22
551.00	31500.49
552.00	31537.94
553.00	31646.38
554.00	31949.09
555.00	32435.14
556.00	32943.82
557.00	33601.51
558.00	34125.79
559.00	34465.17
560.00	34589.22
561.00	34479.21
562.00	34114.87
563.00	33878.47
564.00	33501.65
565.00	33611.65
566.00	33716.98
567.00	33814.50
568.00	33880.03
569.00	33960.39
570.00	34491.69
571.00	35006.61
572.00	35331.17
573.00	35377.98
574.00	35219.60
575.00	35215.70
576.00	35220.38
577.00	35157.19
578.00	35044.84
579.00	34908.31
580.00	34937.18
581.00	35001.15
582.00	35104.92
583.00	35128.32
584.00	35247.69
585.00	35597.21
586.00	36311.07
587.00	36722.23
588.00	36960.96
589.00	37235.58
590.00	37793.41
591.00	38188.96
592.00	38499.47
593.00	38441.74
594.00	38455.78
595.00	38149.95
596.00	38219.39
597.00	38533.02
598.00	39118.15
599.00	39903.79
600.00	40415.59
601.00	40492.83
602.00	40295.44
603.00	40219.77
604.00	40502.97
605.00	40937.53
606.00	41006.97
607.00	41191.09
608.00	41315.92
609.00	41762.18
610.00	42081.27
611.00	42192.06
612.00	42475.26
613.00	42797.48
614.00	43047.13
615.00	42965.99
616.00	42886.42
617.00	42819.32
618.00	43059.62
619.00	43020.61
620.00	43345.94
621.00	43483.25
622.00	43750.07
623.00	44009.87
624.00	44008.31
625.00	43863.98
626.00	43573.75
627.00	43566.73
628.00	43819.51
629.00	44283.72
630.00	44708.91
631.00	44732.32
632.00	43920.93
633.00	43066.64
634.00	41804.31
635.00	40125.36
636.00	38348.90
637.00	37598.37
638.00	38191.30
639.00	39345.97
640.00	40424.17
641.00	41484.44
642.00	42193.62
643.00	43019.05
644.00	43943.56
645.00	44846.22
646.00	45752.79
647.00	46246.65
648.00	46865.33
649.00	47142.29
650.00	47001.86
651.00	46853.62
652.00	46423.75
653.00	46499.42
654.00	46892.63
655.00	47845.23
656.00	49009.26
657.00	49974.34
658.00	50628.91
659.00	50903.53
660.00	50870.76
661.00	50882.47
662.00	50759.20
663.00	50468.19
664.00	50110.09
665.00	50019.59
666.00	50316.84
667.00	50192.79
668.00	49680.21
669.00	48865.70
670.00	48516.18
671.00	48611.37
672.00	49294.02
673.00	50206.05
674.00	51053.33
675.00	51682.15
676.00	51973.94
677.00	51998.12
678.00	51706.33
679.00	51508.95
680.00	51502.71
681.00	51786.69
682.00	52287.57
683.00	52907.81
684.00	53455.50
685.00	53840.90
686.00	54016.44
687.00	54111.63
688.00	53856.51
689.00	53535.85
690.00	53034.98
691.00	52968.66
692.00	53042.00
693.00	53495.28
694.00	53975.09
695.00	54362.84
696.00	54476.75
697.00	54326.17
698.00	54469.73
699.00	54560.23
700.00	54766.98
701.00	54759.95
702.00	54664.77
703.00	54293.41
704.00	53726.22
705.00	53222.22
706.00	53130.16
707.00	53327.55
708.00	53891.62
709.00	54372.99
710.00	54717.82
711.00	54892.58
712.00	54976.84
713.00	54990.11
714.00	54890.24
715.00	54674.13
716.00	54248.16
717.00	53963.39
718.00	53564.72
719.00	53631.82
720.00	53620.89
721.00	53611.53
722.00	53446.13
723.00	53297.12
724.00	53281.52
725.00	53228.46
726.00	53253.43
727.00	53534.29
728.00	53810.48
729.00	54112.41
730.00	54324.61
731.00	54555.55
732.00	54716.26
733.00	54841.87
734.00	54816.13
735.00	54656.97
736.00	54192.76
737.00	53738.70
738.00	53443.01
739.00	53563.94
740.00	53947.79
741.00	54349.58
742.00	54608.60
743.00	54820.81
744.00	55053.30
745.00	55367.71
746.00	55668.86
747.00	56044.91
748.00	56335.13
749.00	56491.17
750.00	56374.92
751.00	56126.83
752.00	56028.52
753.00	55900.57
754.00	55821.78
755.00	55599.43
756.00	55510.49
757.00	55302.18
758.00	55114.15
759.00	54751.37
760.00	54529.80
761.00	54362.06
762.00	54636.69
763.00	55040.04
764.00	55498.00
765.00	55817.88
766.00	56165.84
767.00	56573.87
768.00	56591.81
769.00	56545.78
770.00	56294.56
771.00	56154.13
772.00	56014.48
773.00	55923.98
774.00	55933.34
775.00	55938.80
776.00	55895.11
777.00	55992.64
778.00	56148.67
779.00	56463.86
780.00	56708.06
781.00	56982.68
782.00	57098.93
783.00	57116.09
784.00	56816.50
785.00	56410.81
786.00	55980.15
787.00	55703.97
788.00	55623.61
789.00	55757.80
790.00	55878.73
791.00	55975.47
792.00	55861.57
793.00	55660.28
794.00	55585.38
795.00	55412.18
796.00	55466.02
797.00	55416.08
798.00	55582.26
799.00	55634.53
800.00	55711.77
801.00	55778.09
802.00	55958.31
803.00	56091.72
804.00	56177.54
805.00	56322.65
806.00	56367.90
807.00	56140.09
808.00	55444.17
809.00	54351.14
810.00	53082.57
811.00	51701.65
812.00	50673.38
813.00	49976.68
814.00	50326.98
815.00	51540.16
816.00	53113.78
817.00	54147.51
818.00	54049.99
819.00	53522.59
820.00	52749.43
821.00	52550.49
822.00	52854.76
823.00	53381.38
824.00	53912.68
825.00	54394.05
826.00	54780.24
827.00	55184.37
828.00	55559.64
829.00	55951.29
830.00	56222.79
831.00	56169.74
832.00	55991.08
833.00	55742.20
834.00	55595.52
835.00	55701.63
836.00	55911.50
837.00	56135.41
838.00	56345.28
839.00	56527.84
840.00	56749.41
841.00	56809.48
842.00	56781.40
843.00	56538.76
844.00	56142.43
845.00	55654.04
846.00	55388.78
847.00	55269.41
848.00	55506.58
849.00	55770.28
850.00	56165.84
851.00	56490.39
852.00	56864.10
853.00	57277.59
854.00	57551.43
855.00	57656.76
856.00	57523.35
857.00	57254.96
858.00	57034.17
859.00	56895.30
860.00	56890.62
861.00	56879.70
862.00	57055.24
863.00	57090.35
864.00	56948.35
865.00	56318.75
866.00	55530.77
867.00	54500.15
868.00	53605.29
869.00	53045.12
870.00	52878.94
871.00	53116.12
872.00	53567.06
873.00	54231.77
874.00	55026.77
875.00	55556.52
876.00	55979.37
877.00	56084.70
878.00	56222.79
879.00	56427.20
880.00	56776.72
881.00	57134.82
882.00	57231.56
883.00	57297.87
884.00	57132.48
885.00	56860.19
886.00	56503.65
887.00	56308.61
888.00	56310.17
889.00	56324.99
890.00	56471.67
891.00	56701.82
892.00	57027.15
893.00	57102.83
894.00	57204.25
895.00	57247.16
896.00	57205.03
897.00	57023.25
898.00	56818.84
899.00	56706.50
900.00	56530.96
901.00	56114.34
902.00	55664.96
903.00	55089.19
904.00	54731.87
905.00	54525.90
906.00	54720.94
907.00	55061.88
908.00	55458.21
909.00	55902.92
910.00	56023.06
911.00	56018.38
912.00	55838.16
913.00	55796.03
914.00	55649.36
915.00	55661.84
916.00	55661.84
917.00	55972.35
918.00	56198.60
919.00	56396.77
920.00	56587.13
921.00	56740.05
922.00	56961.62
923.00	56899.20
924.00	56710.40
925.00	56356.98
926.00	55971.57
927.00	55556.52
928.00	55076.71
929.00	54877.76
930.00	54787.26
931.00	55079.05
932.00	55335.73
933.00	55644.68
934.00	55771.07
935.00	55815.54
936.00	55842.84
937.00	55789.01
938.00	55792.13
939.00	55707.09
940.00	55676.66
941.00	55488.64
942.00	55331.04
943.00	55115.72
944.00	54908.97
945.00	54726.41
946.00	54592.22
947.00	54407.31
948.00	54223.19
949.00	53959.49
950.00	53829.98
951.00	53703.59
952.00	53586.57
953.00	53672.38
954.00	53844.02
955.00	54248.94
956.00	54445.54
957.00	54633.56
958.00	54768.54
959.00	54892.58
960.00	54820.03
961.00	54634.34
962.00	54591.44
963.00	54579.73
964.00	54637.47
965.00	54495.47
966.00	54407.31
967.00	54401.85
968.00	54610.16
969.00	54847.33
970.00	55215.58
971.00	55478.50
972.00	55600.21
973.00	55351.33
974.00	55127.42
975.00	54994.01
976.00	54910.53
977.00	54793.50
978.00	54759.95
979.00	54721.72
980.00	54750.59
981.00	54832.51
982.00	54894.14
983.00	54805.20
984.00	54771.66
985.00	54635.91
986.00	54564.13
987.00	54336.32
988.00	54381.57
989.00	54319.93
990.00	54303.55
991.00	53971.97
992.00	53709.05
993.00	53329.11
994.00	53435.99
995.00	53714.51
996.00	54162.34
997.00	54509.52
998.00	54692.86
999.00	54843.43
1000.00	54819.25
1001.00	54743.57
1002.00	54617.96
1003.00	54492.35
1004.00	54475.19
1005.00	54454.12
1006.00	54458.02
1007.00	54315.25
1008.00	54211.49
1009.00	53992.26
1010.00	53979.78
1011.00	53808.14
1012.00	53936.09
1013.00	53762.11
1014.00	53855.73
1015.00	53904.88
1016.00	54116.31
1017.00	54281.70
1018.00	54320.71
1019.00	54495.47
1020.00	54301.21
1021.00	54119.43
1022.00	53792.53
1023.00	53550.68
1024.00	53412.59
1025.00	53418.05
1026.00	53663.80
1027.00	53787.85
1028.00	53792.53
1029.00	53777.71
1030.00	53812.04
1031.00	54100.70
1032.00	54284.04
1033.00	54529.02
1034.00	54507.96
1035.00	54453.34
1036.00	54319.15
1037.00	54214.61
1038.00	54129.57
1039.00	54014.10
1040.00	53919.70
1041.00	53856.51
1042.00	53565.50
1043.00	53499.97
1044.00	53349.39
1045.00	53289.32
1046.00	52991.29
1047.00	52660.49
1048.00	52662.05
1049.00	52592.62
1050.00	52750.99
1051.00	52704.18
1052.00	52801.71
1053.00	52871.14
1054.00	52948.38
1055.00	53026.40
1056.00	52787.66
1057.00	52308.63
1058.00	51676.69
1059.00	51218.72
1060.00	51065.03
1061.00	51030.70
1062.00	51169.57
1063.00	51295.18
1064.00	51440.29
1065.00	51534.70
1066.00	51540.16
1067.00	51624.42
1068.00	51590.87
1069.00	51839.75
1070.00	52153.38
1071.00	52682.34
1072.00	53051.36
1073.00	53059.16
1074.00	52793.12
1075.00	52232.96
1076.00	51875.63
1077.00	51669.67
1078.00	51615.05
1079.00	51519.09
1080.00	51444.98
1081.00	51498.81
1082.00	51753.15
1083.00	51915.42
1084.00	52117.49
1085.00	52198.63
1086.00	52335.16
1087.00	52224.37
1088.00	51853.79
1089.00	51687.61
1090.00	51388.02
1091.00	51288.94
1092.00	51081.41
1093.00	51072.83
1094.00	51284.26
1095.00	51380.22
1096.00	51447.32
1097.00	51277.24
1098.00	51093.89
1099.00	50906.65
1100.00	50713.95
1101.00	50256.76
1102.00	50019.59
1103.00	49886.18
1104.00	49881.50
1105.00	50019.59
1106.00	49934.55
1107.00	50247.40
1108.00	50413.58
1109.00	50709.27
1110.00	50862.96
1111.00	50867.64
1112.00	51044.74
1113.00	50979.21
1114.00	50818.49
1115.00	50433.86
1116.00	49997.74
1117.00	49680.99
1118.00	49319.77
1119.00	49132.53
1120.00	48933.58
1121.00	48960.11
1122.00	49010.04
1123.00	49138.77
1124.00	49205.86
1125.00	49269.06
1126.00	49056.07
1127.00	49035.00
1128.00	48785.35
1129.00	48757.26
1130.00	48410.86
1131.00	48043.40
1132.00	47668.13
1133.00	47179.74
1134.00	46900.43
1135.00	46690.57
1136.00	46972.21
1137.00	47314.71
1138.00	47576.85
1139.00	47900.62
1140.00	48222.84
1141.00	48709.67
1142.00	48894.57
1143.00	49001.46
1144.00	48921.10
1145.00	48839.18
1146.00	48786.13
1147.00	48650.38
1148.00	48616.05
1149.00	48445.19
1150.00	48452.21
1151.00	48270.43
1152.00	48220.50
1153.00	48145.60
1154.00	47963.04
1155.00	47663.45
1156.00	47384.15
1157.00	47138.39
1158.00	47033.07
1159.00	46765.46
1160.00	46650.00
1161.00	46518.93
1162.00	46432.33
1163.00	46323.88
1164.00	46265.37
1165.00	46285.65
1166.00	46275.51
1167.00	46473.68
1168.00	46793.55
1169.00	47026.82
1170.00	46930.86
1171.00	46636.73
1172.00	46429.99
1173.00	46441.69
1174.00	46366.79
1175.00	46199.05
1176.00	45845.63
1177.00	45397.81
1178.00	45044.39
1179.00	44883.67
1180.00	44878.99
1181.00	44984.32
1182.00	45139.57
1183.00	45213.69
1184.00	45468.03
1185.00	45518.74
1186.00	45804.28
1187.00	45897.13
1188.00	46062.52
1189.00	46144.44
1190.00	46159.27
1191.00	46222.46
1192.00	46071.89
1193.00	46021.95
1194.00	45841.73
1195.00	45972.02
1196.00	46046.92
1197.00	46090.61
1198.00	46084.37
1199.00	46028.98
1200.00	46083.59
1201.00	46003.23
1202.00	46097.63
1203.00	46231.82
1204.00	46376.15
1205.00	46376.15
1206.00	46316.08
1207.00	46393.32
1208.00	46355.87
1209.00	46324.66
1210.00	46231.82
1211.00	46201.39
1212.00	46244.30
1213.00	46331.68
1214.00	46264.59
1215.00	46121.04
