SpectraSuite Data File
++++++++++++++++++++++++++++++++++++
Date: Thu Nov 16 13:32:49 EST 2017
User: cheriyan
Dark Spectrum Present: No
Reference Spectrum Present: No
Number of Sampled Component Spectra: 1
Spectrometers: USB2+H05261
Integration Time (usec): 90000 (USB2+H05261)
Spectra Averaged: 1 (USB2+H05261)
Boxcar Smoothing: 1 (USB2+H05261)
Correct for Electrical Dark: No (USB2+H05261)
Strobe/Lamp Enabled: No (USB2+H05261)
Correct for Detector Non-linearity: No (USB2+H05261)
Correct for Stray Light: No (USB2+H05261)
Number of Pixels in Processed Spectrum: 2048
>>>>>Begin Processed Spectral Data<<<<<
0.00	355.76
1.00	355.76
2.00	332.36
3.00	290.23
4.00	275.40
5.00	263.70
6.00	278.52
7.00	266.04
8.00	278.52
9.00	263.70
10.00	255.90
11.00	250.44
12.00	260.58
13.00	256.68
14.00	256.68
15.00	262.14
16.00	252.00
17.00	254.34
18.00	274.62
19.00	299.59
20.00	305.05
21.00	298.81
22.00	300.37
23.00	752.09
24.00	2420.11
25.00	4268.36
26.00	5660.98
27.00	5756.16
28.00	5593.10
29.00	5391.03
30.00	5219.39
31.00	5207.69
32.00	5249.04
33.00	5352.81
34.00	5294.29
35.00	5193.65
36.00	4894.06
37.00	4767.67
38.00	4657.67
39.00	4797.32
40.00	4882.36
41.00	4921.37
42.00	4878.46
43.00	4801.22
44.00	4907.32
45.00	5132.79
46.00	5459.69
47.00	5732.75
48.00	5845.88
49.00	5845.88
50.00	5774.10
51.00	5735.09
52.00	5790.49
53.00	5845.10
54.00	5996.45
55.00	6211.78
56.00	6511.37
57.00	6807.06
58.00	6991.18
59.00	7254.88
60.00	7369.57
61.00	7500.64
62.00	7341.48
63.00	7204.17
64.00	6891.32
65.00	6573.00
66.00	6277.32
67.00	6094.76
68.00	6047.16
69.00	6040.14
70.00	6207.88
71.00	6467.68
72.00	6728.26
73.00	6906.92
74.00	7023.17
75.00	7048.91
76.00	6879.61
77.00	6580.81
78.00	6250.79
79.00	5949.64
80.00	5688.28
81.00	5394.15
82.00	5178.83
83.00	4953.35
84.00	4884.70
85.00	4712.28
86.00	4635.04
87.00	4503.97
88.00	4575.75
89.00	4683.41
90.00	4921.37
91.00	5295.07
92.00	5709.35
93.00	6166.53
94.00	6445.84
95.00	6679.89
96.00	6734.50
97.00	6659.60
98.00	6423.21
99.00	6259.37
100.00	6174.33
101.00	6277.32
102.00	6444.28
103.00	6639.32
104.00	6730.60
105.00	6704.85
106.00	6616.69
107.00	6633.08
108.00	6679.11
109.00	6741.52
110.00	6751.67
111.00	6733.72
112.00	6758.69
113.00	6721.24
114.00	6790.67
115.00	6906.92
116.00	7247.86
117.00	7612.98
118.00	7953.14
119.00	8264.43
120.00	8501.61
121.00	8668.56
122.00	8642.82
123.00	8640.48
124.00	8732.54
125.00	8960.35
126.00	9173.34
127.00	9443.28
128.00	9550.17
129.00	9643.79
130.00	9479.95
131.00	9284.91
132.00	8844.10
133.00	8368.98
134.00	7744.05
135.00	7076.22
136.00	6272.64
137.00	5533.81
138.00	4965.84
139.00	4742.71
140.00	4869.87
141.00	5341.88
142.00	6115.04
143.00	6999.76
144.00	7822.85
145.00	8510.97
146.00	9021.20
147.00	9527.54
148.00	9895.00
149.00	10221.12
150.00	10171.97
151.00	9940.26
152.00	9405.05
153.00	8669.34
154.00	7796.32
155.00	6852.31
156.00	6193.06
157.00	5905.17
158.00	6192.28
159.00	6928.77
160.00	7977.33
161.00	9207.67
162.00	10388.86
163.00	11307.91
164.00	11866.52
165.00	12368.95
166.00	12739.54
167.00	13129.63
168.00	13362.12
169.00	13629.72
170.00	13769.37
171.00	13878.60
172.00	13994.84
173.00	14137.62
174.00	14241.38
175.00	14315.50
176.00	14430.18
177.00	14714.17
178.00	14993.47
179.00	15240.79
180.00	15268.09
181.00	15334.41
182.00	15446.76
183.00	15515.41
184.00	15653.50
185.00	15629.32
186.00	15700.31
187.00	15619.96
188.00	15433.49
189.00	15196.32
190.00	15005.95
191.00	15262.63
192.00	15483.42
193.00	15784.57
194.00	15784.57
195.00	15736.20
196.00	15572.36
197.00	15340.65
198.00	15382.00
199.00	15389.80
200.00	15597.33
201.00	15639.46
202.00	15639.46
203.00	15546.62
204.00	15378.10
205.00	15209.58
206.00	15055.11
207.00	15105.82
208.00	15232.99
209.00	15463.14
210.00	15594.21
211.00	15555.20
212.00	15509.95
213.00	15639.46
214.00	15947.63
215.00	16247.22
216.00	16563.19
217.00	16962.64
218.00	17202.16
219.00	17373.80
220.00	17420.61
221.00	17430.75
222.00	17137.40
223.00	16572.55
224.00	15935.15
225.00	15384.34
226.00	15232.21
227.00	15413.21
228.00	15825.92
229.00	16365.03
230.00	17006.33
231.00	17671.04
232.00	18202.35
233.00	18523.00
234.00	18693.86
235.00	18791.38
236.00	18913.09
237.00	18899.05
238.00	18859.26
239.00	18688.40
240.00	18549.53
241.00	18392.71
242.00	18387.25
243.00	18494.13
244.00	18891.24
245.00	19122.96
246.00	19340.63
247.00	19244.66
248.00	19137.00
249.00	19094.09
250.00	19165.87
251.00	19351.55
252.00	19379.64
253.00	19307.08
254.00	19327.36
255.00	19566.88
256.00	19947.61
257.00	20382.95
258.00	20758.21
259.00	20884.60
260.00	20743.39
261.00	20428.98
262.00	20066.97
263.00	19751.78
264.00	19507.59
265.00	19471.70
266.00	19680.00
267.00	19866.47
268.00	20032.65
269.00	20019.38
270.00	20098.18
271.00	20173.86
272.00	20471.89
273.00	20698.14
274.00	20727.00
275.00	20577.99
276.00	20246.41
277.00	20000.66
278.00	19843.84
279.00	20017.04
280.00	20533.52
281.00	21088.23
282.00	21676.48
283.00	22007.28
284.00	22117.28
285.00	21988.55
286.00	21855.92
287.00	21593.78
288.00	21404.98
289.00	21020.35
290.00	20527.28
291.00	19915.62
292.00	19637.87
293.00	19942.92
294.00	20362.66
295.00	20666.93
296.00	20767.57
297.00	20737.15
298.00	20823.75
299.00	20755.09
300.00	20910.35
301.00	20716.08
302.00	20576.43
303.00	20505.43
304.00	20522.60
305.00	20663.81
306.00	20421.95
307.00	20380.60
308.00	20138.75
309.00	20103.64
310.00	20257.34
311.00	20557.71
312.00	20691.12
313.00	20421.17
314.00	19821.22
315.00	19306.30
316.00	19037.92
317.00	19086.29
318.00	19403.04
319.00	19707.31
320.00	20113.78
321.00	20134.07
322.00	20095.84
323.00	19694.05
324.00	19645.68
325.00	19416.30
326.00	19309.42
327.00	18973.94
328.00	18460.59
329.00	17875.45
330.00	17006.33
331.00	16111.47
332.00	15371.86
333.00	14835.10
334.00	14717.29
335.00	14918.57
336.00	15598.11
337.00	16769.16
338.00	18505.06
339.00	20372.80
340.00	21960.47
341.00	22537.02
342.00	22289.70
343.00	21577.40
344.00	20997.73
345.00	21026.59
346.00	21553.21
347.00	22221.05
348.00	22721.92
349.00	22530.00
350.00	21781.03
351.00	20730.90
352.00	19942.14
353.00	19824.34
354.00	20203.50
355.00	20994.61
356.00	21724.07
357.00	22309.21
358.00	22642.34
359.00	22928.67
360.00	23058.18
361.00	23433.44
362.00	23694.02
363.00	24194.90
364.00	24492.93
365.00	24499.17
366.00	24409.45
367.00	24160.57
368.00	24065.39
369.00	23663.60
370.00	23481.03
371.00	23131.51
372.00	22922.43
373.00	22363.82
374.00	21862.16
375.00	21398.74
376.00	21214.62
377.00	21405.76
378.00	21848.12
379.00	22451.20
380.00	23123.71
381.00	23792.33
382.00	24190.22
383.00	24369.66
384.00	24128.58
385.00	23946.02
386.00	23805.59
387.00	24013.90
388.00	24570.16
389.00	25242.68
390.00	25829.37
391.00	26114.14
392.00	26363.79
393.00	26784.31
394.00	27246.96
395.00	27524.70
396.00	27727.55
397.00	27900.75
398.00	28268.21
399.00	28343.11
400.00	28161.33
401.00	27896.07
402.00	27646.41
403.00	27837.55
404.00	28211.26
405.00	28599.79
406.00	28737.88
407.00	28450.77
408.00	28162.11
409.00	28180.83
410.00	28482.76
411.00	28745.68
412.00	28322.04
413.00	27573.85
414.00	26820.98
415.00	26253.79
416.00	26028.32
417.00	26067.33
418.00	26608.77
419.00	27072.20
420.00	27648.75
421.00	28016.21
422.00	28397.72
423.00	28749.58
424.00	29122.51
425.00	29383.09
426.00	29309.75
427.00	28865.05
428.00	28741.00
429.00	28641.14
430.00	28815.90
431.00	28619.29
432.00	28533.47
433.00	28546.73
434.00	28780.79
435.00	29067.11
436.00	29144.35
437.00	29424.43
438.00	29764.59
439.00	30378.59
440.00	30904.43
441.00	31250.83
442.00	31461.48
443.00	31322.61
444.00	31185.30
445.00	30846.70
446.00	30586.90
447.00	30463.63
448.00	30474.56
449.00	30342.70
450.00	29976.02
451.00	29500.11
452.00	28925.12
453.00	28418.78
454.00	28084.09
455.00	28136.36
456.00	28367.29
457.00	28746.46
458.00	29099.88
459.00	29486.85
460.00	29901.90
461.00	30136.74
462.00	30304.48
463.00	30021.27
464.00	29922.19
465.00	29648.35
466.00	29672.53
467.00	29971.34
468.00	30224.12
469.00	30687.54
470.00	31010.54
471.00	31439.64
472.00	31413.11
473.00	31200.90
474.00	31317.15
475.00	31523.12
476.00	31949.09
477.00	32242.44
478.00	32425.78
479.00	32359.47
480.00	31882.78
481.00	31740.00
482.00	31211.82
483.00	30826.42
484.00	30820.17
485.00	31090.12
486.00	31455.24
487.00	31313.25
488.00	31265.66
489.00	31297.64
490.00	31182.96
491.00	31174.38
492.00	31184.52
493.00	31417.01
494.00	31502.05
495.00	31650.28
496.00	31919.45
497.00	32274.43
498.00	32507.70
499.00	32585.72
500.00	32587.28
501.00	32645.01
502.00	32846.30
503.00	32872.82
504.00	33106.88
505.00	33122.48
506.00	33461.86
507.00	33599.17
508.00	33630.38
509.00	33436.89
510.00	33193.48
511.00	32949.28
512.00	32875.16
513.00	32851.76
514.00	32848.64
515.00	32859.56
516.00	32605.22
517.00	32204.99
518.00	31811.78
519.00	31577.73
520.00	31882.78
521.00	31942.85
522.00	32080.16
523.00	32381.31
524.00	32779.20
525.00	33080.35
526.00	32639.55
527.00	32147.26
528.00	31599.57
529.00	31197.78
530.00	30998.84
531.00	31128.34
532.00	31496.59
533.00	31839.09
534.00	32013.07
535.00	32187.05
536.00	32096.55
537.00	31940.51
538.00	31889.80
539.00	32024.77
540.00	32023.21
541.00	32158.18
542.00	32265.07
543.00	32471.81
544.00	32350.10
545.00	32293.15
546.00	32034.13
547.00	31866.39
548.00	31562.90
549.00	31499.71
550.00	31361.62
551.00	31539.50
552.00	31709.58
553.00	31852.35
554.00	32041.15
555.00	32464.01
556.00	33029.64
557.00	33540.66
558.00	34062.60
559.00	34551.77
560.00	34757.74
561.00	34530.70
562.00	34068.84
563.00	33602.29
564.00	33297.24
565.00	33290.22
566.00	33543.00
567.00	33763.01
568.00	33855.85
569.00	33999.40
570.00	34497.94
571.00	35061.22
572.00	35349.11
573.00	35369.40
574.00	35241.45
575.00	35213.36
576.00	35239.89
577.00	35053.42
578.00	35071.37
579.00	34926.25
580.00	35014.41
581.00	35008.95
582.00	35045.62
583.00	35101.79
584.00	35232.08
585.00	35578.48
586.00	36259.58
587.00	36718.32
588.00	37054.58
589.00	37362.75
590.00	37631.13
591.00	38143.71
592.00	38327.05
593.00	38706.22
594.00	38590.75
595.00	38452.66
596.00	38333.29
597.00	38614.94
598.00	39197.73
599.00	39578.46
600.00	39984.15
601.00	39987.27
602.00	40105.08
603.00	40162.81
604.00	40512.33
605.00	41029.59
606.00	41034.27
607.00	41164.56
608.00	41292.51
609.00	41893.25
610.00	42305.18
611.00	42312.98
612.00	42444.84
613.00	42660.16
614.00	43048.69
615.00	43179.76
616.00	43044.01
617.00	43047.13
618.00	43266.36
619.00	43434.10
620.00	43608.08
621.00	43700.14
622.00	43956.04
623.00	44240.03
624.00	43996.61
625.00	43739.15
626.00	43597.16
627.00	43779.72
628.00	44172.15
629.00	44455.36
630.00	44878.21
631.00	44643.38
632.00	43874.90
633.00	42974.58
634.00	41761.40
635.00	40224.45
636.00	38557.21
637.00	37796.53
638.00	38066.47
639.00	39070.56
640.00	40341.47
641.00	41502.38
642.00	42558.74
643.00	43290.55
644.00	44148.74
645.00	44769.77
646.00	45780.88
647.00	46544.67
648.00	47114.20
649.00	47296.77
650.00	47139.17
651.00	46990.94
652.00	46497.08
653.00	46522.83
654.00	46880.93
655.00	47949.77
656.00	49019.40
657.00	49831.57
658.00	50298.89
659.00	50599.26
660.00	50891.05
661.00	50824.73
662.00	50723.31
663.00	50428.40
664.00	50349.60
665.00	50242.72
666.00	50379.25
667.00	50298.89
668.00	49933.77
669.00	49258.13
670.00	48790.81
671.00	48668.32
672.00	49252.67
673.00	50117.11
674.00	51123.54
675.00	51730.52
676.00	51974.72
677.00	51960.67
678.00	51567.46
679.00	51400.50
680.00	51336.53
681.00	51823.36
682.00	52362.46
683.00	53003.77
684.00	53456.28
685.00	53882.25
686.00	54100.70
687.00	54204.47
688.00	54009.42
689.00	53719.98
690.00	53288.54
691.00	53056.04
692.00	52988.17
693.00	53337.69
694.00	53791.75
695.00	54149.07
696.00	54326.17
697.00	54381.57
698.00	54545.40
699.00	54657.75
700.00	54820.03
701.00	54881.66
702.00	54660.09
703.00	54325.39
704.00	53805.80
705.00	53375.92
706.00	53230.02
707.00	53441.45
708.00	54023.47
709.00	54445.54
710.00	54802.08
711.00	55008.05
712.00	55246.79
713.00	55185.93
714.00	54965.14
715.00	54576.61
716.00	54209.93
717.00	54021.90
718.00	53751.96
719.00	53684.09
720.00	53607.63
721.00	53628.69
722.00	53495.28
723.00	53377.48
724.00	53271.37
725.00	53190.23
726.00	53230.80
727.00	53587.35
728.00	53963.39
729.00	54167.02
730.00	54179.50
731.00	54444.76
732.00	54731.87
733.00	54921.45
734.00	54887.90
735.00	54649.17
736.00	54138.15
737.00	53634.94
738.00	53276.83
739.00	53408.68
740.00	53712.17
741.00	54352.70
742.00	54697.54
743.00	54921.45
744.00	55050.18
745.00	55356.01
746.00	55698.51
747.00	56039.45
748.00	56361.66
749.00	56617.56
750.00	56541.88
751.00	56246.19
752.00	55964.55
753.00	55773.41
754.00	55645.46
755.00	55545.59
756.00	55502.68
757.00	55396.58
758.00	55278.77
759.00	55015.85
760.00	54688.18
761.00	54514.98
762.00	54710.80
763.00	55184.37
764.00	55526.87
765.00	55908.38
766.00	56318.75
767.00	56717.42
768.00	56711.96
769.00	56525.50
770.00	56246.97
771.00	56044.91
772.00	56015.26
773.00	56008.24
774.00	56038.67
775.00	56030.86
776.00	55978.59
777.00	56053.49
778.00	56143.99
779.00	56495.85
780.00	56672.95
781.00	56977.22
782.00	57120.77
783.00	57161.34
784.00	56854.73
785.00	56401.45
786.00	56036.33
787.00	55796.03
788.00	55742.98
789.00	55879.51
790.00	56016.04
791.00	56068.31
792.00	55950.51
793.00	55745.32
794.00	55575.24
795.00	55222.60
796.00	55217.14
797.00	55104.01
798.00	55390.34
799.00	55398.14
800.00	55658.72
801.00	55727.38
802.00	55939.58
803.00	56042.57
804.00	56188.46
805.00	56463.08
806.00	56502.09
807.00	56327.33
808.00	55615.81
809.00	54540.72
810.00	53171.51
811.00	51655.62
812.00	50474.43
813.00	49986.04
814.00	50521.24
815.00	51868.61
816.00	53328.33
817.00	54255.18
818.00	54283.26
819.00	53715.29
820.00	52937.46
821.00	52630.85
822.00	52850.08
823.00	53494.50
824.00	54098.36
825.00	54581.29
826.00	54859.04
827.00	55200.75
828.00	55574.46
829.00	56005.90
830.00	56245.41
831.00	56211.09
832.00	56067.53
833.00	55787.45
834.00	55714.89
835.00	55766.38
836.00	56045.69
837.00	56267.26
838.00	56405.35
839.00	56545.78
840.00	56660.47
841.00	56810.26
842.00	56761.89
843.00	56620.68
844.00	56132.29
845.00	55685.25
846.00	55317.78
847.00	55233.52
848.00	55391.12
849.00	55657.16
850.00	56172.08
851.00	56613.66
852.00	56956.16
853.00	57138.72
854.00	57217.52
855.00	57379.79
856.00	57386.03
857.00	57350.15
858.00	57217.52
859.00	56988.14
860.00	56889.84
861.00	56797.78
862.00	57002.19
863.00	57036.51
864.00	56907.79
865.00	56357.76
866.00	55624.39
867.00	54725.63
868.00	53712.95
869.00	53006.89
870.00	52644.11
871.00	52968.66
872.00	53456.28
873.00	54215.39
874.00	54926.91
875.00	55538.57
876.00	55888.87
877.00	56012.14
878.00	56154.13
879.00	56374.14
880.00	56750.19
881.00	57093.47
882.00	57313.48
883.00	57419.58
884.00	57320.50
885.00	57080.99
886.00	56742.39
887.00	56449.04
888.00	56288.32
889.00	56346.06
890.00	56502.87
891.00	56783.74
892.00	57031.05
893.00	57246.38
894.00	57372.77
895.00	57325.18
896.00	57167.58
897.00	57059.92
898.00	56907.79
899.00	56709.62
900.00	56446.70
901.00	56082.36
902.00	55581.48
903.00	54926.91
904.00	54528.24
905.00	54537.60
906.00	54808.32
907.00	55217.92
908.00	55544.03
909.00	55918.52
910.00	56055.05
911.00	56108.10
912.00	55854.54
913.00	55679.78
914.00	55536.23
915.00	55653.26
916.00	55750.78
917.00	55987.95
918.00	56229.03
919.00	56408.47
920.00	56620.68
921.00	56839.91
922.00	57012.33
923.00	57041.20
924.00	56735.37
925.00	56406.13
926.00	55939.58
927.00	55426.23
928.00	54958.90
929.00	54650.73
930.00	54704.56
931.00	54979.18
932.00	55380.20
933.00	55609.57
934.00	55843.62
935.00	55867.03
936.00	55991.08
937.00	55998.88
938.00	55906.82
939.00	55853.76
940.00	55595.52
941.00	55388.78
942.00	55138.34
943.00	54854.36
944.00	54616.40
945.00	54415.90
946.00	54475.19
947.00	54248.16
948.00	54229.43
949.00	53875.23
950.00	53833.88
951.00	53496.84
952.00	53377.48
953.00	53418.83
954.00	53687.21
955.00	54089.00
956.00	54373.77
957.00	54568.81
958.00	54780.24
959.00	54955.78
960.00	54831.73
961.00	54607.82
962.00	54562.57
963.00	54617.18
964.00	54579.73
965.00	54351.92
966.00	54349.58
967.00	54452.56
968.00	54730.31
969.00	54921.45
970.00	55214.02
971.00	55447.29
972.00	55562.76
973.00	55431.69
974.00	55124.30
975.00	55001.81
976.00	54887.12
977.00	54881.66
978.00	54744.35
979.00	54787.26
980.00	54789.60
981.00	55027.56
982.00	55016.63
983.00	54881.66
984.00	54611.72
985.00	54475.97
986.00	54497.81
987.00	54452.56
988.00	54594.56
989.00	54474.41
990.00	54475.97
991.00	54068.72
992.00	53758.20
993.00	53428.19
994.00	53554.58
995.00	53871.33
996.00	54216.95
997.00	54456.46
998.00	54641.37
999.00	54757.61
1000.00	54609.38
1001.00	54647.61
1002.00	54550.87
1003.00	54587.53
1004.00	54613.28
1005.00	54568.03
1006.00	54575.83
1007.00	54414.33
1008.00	54298.09
1009.00	54149.07
1010.00	54015.66
1011.00	53822.96
1012.00	53842.46
1013.00	53782.39
1014.00	53931.40
1015.00	53950.13
1016.00	54003.18
1017.00	54173.26
1018.00	54362.84
1019.00	54536.82
1020.00	54425.26
1021.00	54209.15
1022.00	53878.35
1023.00	53487.48
1024.00	53269.81
1025.00	53335.35
1026.00	53769.91
1027.00	53965.73
1028.00	54142.05
1029.00	53972.75
1030.00	53993.04
1031.00	54022.68
1032.00	54100.70
1033.00	54236.45
1034.00	54176.38
1035.00	54187.30
1036.00	54223.19
1037.00	54309.01
1038.00	54344.90
1039.00	54096.80
1040.00	53908.78
1041.00	53643.52
1042.00	53517.13
1043.00	53386.84
1044.00	53359.53
1045.00	53251.87
1046.00	53001.43
1047.00	52790.00
1048.00	52572.33
1049.00	52486.51
1050.00	52480.27
1051.00	52545.81
1052.00	52675.32
1053.00	52963.98
1054.00	53129.38
1055.00	53116.12
1056.00	52686.24
1057.00	52318.77
1058.00	51803.08
1059.00	51436.39
1060.00	51118.86
1061.00	51152.41
1062.00	51206.24
1063.00	51409.09
1064.00	51480.86
1065.00	51565.90
1066.00	51588.53
1067.00	51611.15
1068.00	51650.16
1069.00	51734.42
1070.00	52081.60
1071.00	52611.34
1072.00	53024.06
1073.00	53104.41
1074.00	52872.70
1075.00	52402.25
1076.00	51986.42
1077.00	51663.42
1078.00	51575.26
1079.00	51609.59
1080.00	51551.86
1081.00	51732.86
1082.00	51732.86
1083.00	52043.37
1084.00	52122.95
1085.00	52244.66
1086.00	52035.57
1087.00	52003.58
1088.00	51875.63
1089.00	51980.96
1090.00	51577.61
1091.00	51341.99
1092.00	51196.10
1093.00	51413.77
1094.00	51638.46
1095.00	51642.36
1096.00	51468.38
1097.00	51339.65
1098.00	51169.57
1099.00	50994.81
1100.00	50779.48
1101.00	50481.45
1102.00	50138.18
1103.00	49847.17
1104.00	49672.41
1105.00	49776.17
1106.00	50021.15
1107.00	50319.96
1108.00	50619.55
1109.00	50753.74
1110.00	50933.18
1111.00	50862.18
1112.00	50956.58
1113.00	50877.01
1114.00	50917.57
1115.00	50518.12
1116.00	50101.51
1117.00	49769.15
1118.00	49451.62
1119.00	49118.48
1120.00	48812.65
1121.00	48811.09
1122.00	48939.04
1123.00	49050.61
1124.00	49240.97
1125.00	49290.12
1126.00	49205.08
1127.00	48984.29
1128.00	48753.36
1129.00	48598.10
1130.00	48336.74
1131.00	48069.92
1132.00	47709.48
1133.00	47313.15
1134.00	47083.00
1135.00	46923.84
1136.00	47196.12
1137.00	47573.73
1138.00	48009.85
1139.00	48321.92
1140.00	48580.94
1141.00	48801.73
1142.00	48953.08
1143.00	48928.12
1144.00	48881.31
1145.00	48783.01
1146.00	48933.58
1147.00	48797.83
1148.00	48710.45
1149.00	48495.90
1150.00	48438.17
1151.00	48327.38
1152.00	48298.51
1153.00	48325.82
1154.00	48137.80
1155.00	47831.97
1156.00	47614.30
1157.00	47362.30
1158.00	47167.26
1159.00	46879.37
1160.00	46672.62
1161.00	46515.81
1162.00	46451.05
1163.00	46344.95
1164.00	46188.13
1165.00	46233.38
1166.00	46337.93
1167.00	46607.09
1168.00	46728.80
1169.00	46967.53
1170.00	46962.07
1171.00	46823.20
1172.00	46629.71
1173.00	46511.91
1174.00	46519.71
1175.00	46430.77
1176.00	46209.98
1177.00	45872.16
1178.00	45307.31
1179.00	45026.45
1180.00	44843.10
1181.00	45110.71
1182.00	45262.84
1183.00	45411.85
1184.00	45580.37
1185.00	45791.80
1186.00	45931.45
1187.00	45999.33
1188.00	45851.87
1189.00	45833.15
1190.00	45852.66
1191.00	45985.29
1192.00	45910.39
1193.00	45836.27
1194.00	45821.45
1195.00	46034.44
1196.00	46189.69
1197.00	46209.20
1198.00	46108.55
1199.00	45961.10
1200.00	45982.94
1201.00	46187.35
1202.00	46262.25
1203.00	46448.71
1204.00	46470.56
1205.00	46744.40
1206.00	46735.82
1207.00	46826.32
1208.00	46638.29
1209.00	46586.80
1210.00	46465.88
1211.00	46437.79
1212.00	46348.07
1213.00	46262.25
1214.00	46209.98
1215.00	46283.31
