SpectraSuite Data File
++++++++++++++++++++++++++++++++++++
Date: Thu Nov 16 13:32:54 EST 2017
User: cheriyan
Dark Spectrum Present: No
Reference Spectrum Present: No
Number of Sampled Component Spectra: 1
Spectrometers: USB2+H05261
Integration Time (usec): 90000 (USB2+H05261)
Spectra Averaged: 1 (USB2+H05261)
Boxcar Smoothing: 1 (USB2+H05261)
Correct for Electrical Dark: No (USB2+H05261)
Strobe/Lamp Enabled: No (USB2+H05261)
Correct for Detector Non-linearity: No (USB2+H05261)
Correct for Stray Light: No (USB2+H05261)
Number of Pixels in Processed Spectrum: 2048
>>>>>Begin Processed Spectral Data<<<<<
0.00	440.02
1.00	440.02
2.00	373.71
3.00	317.53
4.00	239.51
5.00	247.32
6.00	226.25
7.00	252.78
8.00	256.68
9.00	287.89
10.00	264.48
11.00	269.94
12.00	270.72
13.00	280.86
14.00	283.98
15.00	263.70
16.00	252.78
17.00	244.20
18.00	244.98
19.00	264.48
20.00	282.42
21.00	312.85
22.00	334.70
23.00	770.82
24.00	2415.43
25.00	4171.61
26.00	5526.00
27.00	5609.48
28.00	5463.59
29.00	5270.11
30.00	5104.71
31.00	5034.49
32.00	5055.56
33.00	5134.36
34.00	5128.11
35.00	5000.94
36.00	4770.01
37.00	4628.02
38.00	4574.19
39.00	4698.24
40.00	4799.66
41.00	4887.04
42.00	4851.15
43.00	4771.57
44.00	4837.11
45.00	5046.98
46.00	5418.34
47.00	5584.52
48.00	5682.82
49.00	5659.42
50.00	5678.92
51.00	5658.64
52.00	5724.17
53.00	5790.49
54.00	5933.26
55.00	6113.48
56.00	6349.87
57.00	6601.09
58.00	6881.96
59.00	7109.77
60.00	7268.14
61.00	7272.04
62.00	7140.97
63.00	6941.25
64.00	6625.28
65.00	6367.82
66.00	6083.83
67.00	5868.50
68.00	5852.12
69.00	5869.28
70.00	6137.66
71.00	6399.80
72.00	6692.37
73.00	6878.05
74.00	6899.12
75.00	6893.66
76.00	6722.02
77.00	6455.20
78.00	6143.13
79.00	5838.86
80.00	5584.52
81.00	5286.49
82.00	5071.16
83.00	4849.59
84.00	4706.82
85.00	4578.09
86.00	4491.49
87.00	4461.84
88.00	4478.22
89.00	4571.85
90.00	4752.85
91.00	5118.75
92.00	5588.42
93.00	6054.19
94.00	6373.28
95.00	6579.25
96.00	6630.74
97.00	6549.60
98.00	6387.32
99.00	6218.02
100.00	6148.59
101.00	6181.35
102.00	6313.99
103.00	6465.34
104.00	6507.47
105.00	6492.65
106.00	6382.64
107.00	6409.17
108.00	6445.84
109.00	6597.97
110.00	6633.86
111.00	6692.37
112.00	6579.25
113.00	6507.47
114.00	6497.33
115.00	6693.15
116.00	7066.08
117.00	7449.14
118.00	7879.02
119.00	8177.83
120.00	8452.45
121.00	8486.00
122.00	8436.85
123.00	8321.38
124.00	8447.77
125.00	8709.91
126.00	9074.26
127.00	9317.67
128.00	9479.95
129.00	9459.67
130.00	9284.91
131.00	8918.22
132.00	8542.18
133.00	8065.49
134.00	7573.97
135.00	6960.75
136.00	6226.61
137.00	5452.67
138.00	4789.52
139.00	4641.28
140.00	4858.95
141.00	5470.61
142.00	6097.88
143.00	6842.17
144.00	7626.25
145.00	8321.38
146.00	8990.00
147.00	9436.26
148.00	9762.37
149.00	9947.28
150.00	9917.63
151.00	9690.60
152.00	9160.86
153.00	8412.67
154.00	7528.72
155.00	6647.90
156.00	5979.29
157.00	5748.36
158.00	6001.13
159.00	6683.79
160.00	7815.05
161.00	9040.71
162.00	10250.77
163.00	11041.09
164.00	11578.63
165.00	12003.05
166.00	12450.87
167.00	12829.26
168.00	13157.71
169.00	13435.46
170.00	13607.09
171.00	13637.52
172.00	13669.51
173.00	13845.83
174.00	13999.52
175.00	13960.52
176.00	14025.27
177.00	14203.93
178.00	14535.51
179.00	14725.87
180.00	14842.90
181.00	15018.44
182.00	15257.95
183.00	15414.77
184.00	15472.50
185.00	15460.80
186.00	15457.68
187.00	15481.86
188.00	15231.43
189.00	14976.31
190.00	14799.21
191.00	14874.88
192.00	15097.24
193.00	15309.44
194.00	15455.34
195.00	15353.13
196.00	14984.11
197.00	14799.99
198.00	14856.16
199.00	15201.78
200.00	15367.96
201.00	15438.17
202.00	15403.07
203.00	15398.38
204.00	15261.85
205.00	14966.17
206.00	14664.24
207.00	14669.70
208.00	14946.66
209.00	15241.57
210.00	15403.07
211.00	15270.44
212.00	15232.99
213.00	15307.88
214.00	15653.50
215.00	16042.81
216.00	16342.40
217.00	16713.77
218.00	16886.18
219.00	17138.18
220.00	17209.18
221.00	17253.65
222.00	16968.10
223.00	16372.05
224.00	15773.65
225.00	15163.55
226.00	14953.68
227.00	15030.14
228.00	15520.87
229.00	16139.55
230.00	16791.00
231.00	17424.51
232.00	17923.82
233.00	18129.01
234.00	18250.72
235.00	18301.43
236.00	18518.32
237.00	18569.81
238.00	18533.92
239.00	18349.80
240.00	18100.14
241.00	17943.33
242.00	17923.04
243.00	18068.94
244.00	18545.62
245.00	18806.20
246.00	18975.50
247.00	18871.74
248.00	18807.76
249.00	18782.02
250.00	18745.35
251.00	18914.65
252.00	19049.62
253.00	19069.90
254.00	19110.47
255.00	19269.63
256.00	19676.88
257.00	20134.85
258.00	20452.38
259.00	20524.94
260.00	20290.10
261.00	20017.04
262.00	19693.27
263.00	19465.46
264.00	19345.31
265.00	19232.18
266.00	19218.92
267.00	19346.09
268.00	19541.91
269.00	19644.90
270.00	19662.06
271.00	19704.97
272.00	20036.55
273.00	20386.07
274.00	20480.47
275.00	20339.26
276.00	19829.02
277.00	19530.99
278.00	19364.03
279.00	19715.11
280.00	20210.53
281.00	20702.82
282.00	21163.90
283.00	21433.85
284.00	21653.86
285.00	21553.21
286.00	21607.83
287.00	21297.31
288.00	21082.77
289.00	20486.71
290.00	19914.06
291.00	19323.46
292.00	19216.58
293.00	19487.30
294.00	19896.89
295.00	20235.49
296.00	20449.26
297.00	20462.52
298.00	20425.86
299.00	20475.01
300.00	20654.45
301.00	20528.84
302.00	20238.61
303.00	20081.02
304.00	19983.49
305.00	20108.32
306.00	20028.74
307.00	19989.74
308.00	19760.36
309.00	19609.01
310.00	19785.33
311.00	20123.93
312.00	20265.92
313.00	20125.49
314.00	19658.16
315.00	19108.13
316.00	18787.48
317.00	18786.70
318.00	19253.25
319.00	19523.97
320.00	19814.98
321.00	19726.04
322.00	19648.02
323.00	19349.99
324.00	19161.19
325.00	18941.96
326.00	18857.70
327.00	18678.26
328.00	18257.74
329.00	17483.02
330.00	16637.31
331.00	15861.81
332.00	15174.47
333.00	14668.14
334.00	14487.92
335.00	14747.72
336.00	15417.89
337.00	16540.57
338.00	18249.94
339.00	20096.62
340.00	21501.72
341.00	22096.22
342.00	21738.12
343.00	21266.89
344.00	20606.86
345.00	20735.59
346.00	21134.26
347.00	21820.03
348.00	22197.64
349.00	22061.11
350.00	21383.91
351.00	20396.99
352.00	19690.15
353.00	19610.57
354.00	20078.68
355.00	20740.27
356.00	21408.10
357.00	21944.86
358.00	22185.94
359.00	22327.93
360.00	22480.85
361.00	22966.12
362.00	23336.70
363.00	23703.39
364.00	23823.53
365.00	23953.82
366.00	23951.48
367.00	23792.33
368.00	23612.88
369.00	23239.96
370.00	23126.05
371.00	22756.25
372.00	22466.02
373.00	22016.64
374.00	21479.88
375.00	21052.34
376.00	20709.84
377.00	20900.20
378.00	21419.80
379.00	22121.96
380.00	22774.97
381.00	23378.83
382.00	23794.67
383.00	24086.45
384.00	23899.21
385.00	23694.80
386.00	23536.43
387.00	23687.78
388.00	24088.79
389.00	24723.08
390.00	25370.63
391.00	25812.21
392.00	26057.18
393.00	26341.95
394.00	26657.14
395.00	26954.39
396.00	27114.33
397.00	27318.73
398.00	27580.87
399.00	27747.83
400.00	27534.84
401.00	27313.27
402.00	27182.20
403.00	27513.78
404.00	27820.39
405.00	28104.37
406.00	28182.39
407.00	27853.94
408.00	27459.95
409.00	27421.72
410.00	27729.11
411.00	27966.28
412.00	27551.23
413.00	26940.35
414.00	26221.02
415.00	25688.94
416.00	25505.60
417.00	25589.86
418.00	26128.18
419.00	26530.75
420.00	27152.55
421.00	27544.20
422.00	28112.95
423.00	28519.43
424.00	28792.49
425.00	28875.19
426.00	28609.93
427.00	28354.81
428.00	28084.87
429.00	28169.91
430.00	28265.09
431.00	28267.43
432.00	28203.46
433.00	28137.92
434.00	28189.41
435.00	28367.29
436.00	28581.06
437.00	28971.15
438.00	29340.96
439.00	29753.67
440.00	30210.85
441.00	30625.91
442.00	30745.28
443.00	30793.65
444.00	30566.62
445.00	30518.25
446.00	30079.78
447.00	30008.01
448.00	29738.85
449.00	29728.70
450.00	29422.09
451.00	29207.55
452.00	28555.32
453.00	27946.78
454.00	27487.25
455.00	27436.54
456.00	27676.83
457.00	28142.60
458.00	28677.80
459.00	29091.30
460.00	29386.21
461.00	29542.24
462.00	29544.58
463.00	29343.30
464.00	29088.18
465.00	28856.46
466.00	28930.58
467.00	29315.21
468.00	29553.16
469.00	30036.88
470.00	30419.16
471.00	30971.53
472.00	31072.95
473.00	30902.09
474.00	31123.66
475.00	31079.19
476.00	31373.32
477.00	31509.85
478.00	31768.87
479.00	31802.42
480.00	31313.25
481.00	31047.21
482.00	30480.80
483.00	30150.78
484.00	30243.62
485.00	30640.73
486.00	31114.30
487.00	30960.61
488.00	30885.71
489.00	30805.35
490.00	30709.39
491.00	30700.81
492.00	30696.91
493.00	30701.59
494.00	30747.62
495.00	30843.58
496.00	31417.01
497.00	31754.05
498.00	31997.46
499.00	32023.99
500.00	31848.45
501.00	32063.00
502.00	32063.00
503.00	32446.85
504.00	32581.04
505.00	32703.53
506.00	32591.18
507.00	32684.02
508.00	32701.96
509.00	32926.66
510.00	32779.20
511.00	32545.93
512.00	32329.82
513.00	32016.19
514.00	32113.71
515.00	32038.03
516.00	31995.12
517.00	31579.29
518.00	31215.72
519.00	30989.47
520.00	31298.42
521.00	31402.19
522.00	31478.64
523.00	31642.48
524.00	32194.07
525.00	32511.60
526.00	32153.50
527.00	31623.76
528.00	31087.00
529.00	30743.72
530.00	30541.65
531.00	30643.07
532.00	30852.16
533.00	31049.55
534.00	31147.85
535.00	31442.76
536.00	31277.36
537.00	31262.54
538.00	31175.16
539.00	31421.69
540.00	31647.94
541.00	31698.66
542.00	31798.52
543.00	31739.22
544.00	31760.29
545.00	31675.25
546.00	31378.78
547.00	31083.87
548.00	30675.84
549.00	30629.03
550.00	30619.67
551.00	30784.29
552.00	31017.56
553.00	31243.81
554.00	31544.18
555.00	31998.24
556.00	32492.10
557.00	33127.16
558.00	33637.40
559.00	33954.93
560.00	34080.54
561.00	33824.64
562.00	33452.50
563.00	33104.54
564.00	32896.23
565.00	33112.34
566.00	33418.17
567.00	33565.62
568.00	33606.19
569.00	33425.19
570.00	33778.61
571.00	34288.07
572.00	34712.49
573.00	34795.18
574.00	34566.59
575.00	34553.33
576.00	34669.58
577.00	34611.84
578.00	34585.32
579.00	34308.35
580.00	34448.00
581.00	34316.93
582.00	34485.45
583.00	34233.46
584.00	34572.05
585.00	34900.51
586.00	35747.78
587.00	36077.80
588.00	36257.24
589.00	36553.71
590.00	37063.16
591.00	37642.84
592.00	37801.21
593.00	37734.12
594.00	37606.17
595.00	37478.22
596.00	37613.19
597.00	38000.16
598.00	38503.37
599.00	39149.36
600.00	39440.37
601.00	39597.96
602.00	39636.19
603.00	39609.67
604.00	39835.14
605.00	40061.39
606.00	40294.66
607.00	40389.84
608.00	40566.16
609.00	40835.33
610.00	41425.14
611.00	41511.74
612.00	41945.52
613.00	42221.70
614.00	42538.46
615.00	42515.05
616.00	42206.10
617.00	42338.73
618.00	42478.38
619.00	42505.69
620.00	42600.87
621.00	42893.44
622.00	43241.40
623.00	43510.56
624.00	43397.43
625.00	43327.22
626.00	43044.01
627.00	43098.62
628.00	43397.43
629.00	43993.49
630.00	44371.88
631.00	44123.78
632.00	43304.59
633.00	42409.73
634.00	41325.28
635.00	39552.71
636.00	37805.89
637.00	36838.47
638.00	37154.44
639.00	38050.87
640.00	39307.74
641.00	40513.89
642.00	41652.95
643.00	42457.32
644.00	43491.05
645.00	44310.24
646.00	45287.81
647.00	45834.71
648.00	46398.00
649.00	46735.04
650.00	46445.59
651.00	46121.04
652.00	45659.17
653.00	45922.09
654.00	46414.38
655.00	47505.85
656.00	48641.79
657.00	49537.44
658.00	49813.62
659.00	49987.60
660.00	50153.00
661.00	50139.74
662.00	49954.83
663.00	49781.63
664.00	49737.94
665.00	49696.59
666.00	49741.06
667.00	49538.22
668.00	49205.86
669.00	48505.26
670.00	48021.55
671.00	47968.50
672.00	48603.56
673.00	49687.23
674.00	50678.84
675.00	51253.05
676.00	51398.94
677.00	51395.04
678.00	51028.36
679.00	50762.32
680.00	50719.41
681.00	51158.65
682.00	51813.22
683.00	52428.00
684.00	52978.81
685.00	53269.03
686.00	53443.79
687.00	53453.15
688.00	53230.02
689.00	52898.45
690.00	52429.56
691.00	52407.72
692.00	52545.81
693.00	52980.37
694.00	53380.60
695.00	53713.73
696.00	53872.89
697.00	53854.17
698.00	53915.80
699.00	54025.03
700.00	54226.31
701.00	54403.41
702.00	54360.50
703.00	54054.67
704.00	53379.82
705.00	52891.43
706.00	52576.23
707.00	52803.27
708.00	53260.45
709.00	53780.83
710.00	54187.30
711.00	54529.02
712.00	54734.99
713.00	54783.36
714.00	54543.06
715.00	54160.00
716.00	53827.64
717.00	53546.78
718.00	53363.43
719.00	53162.93
720.00	53069.31
721.00	53049.02
722.00	52954.62
723.00	52824.33
724.00	52771.28
725.00	52658.15
726.00	52757.24
727.00	53045.12
728.00	53391.52
729.00	53610.75
730.00	53861.19
731.00	54012.54
732.00	54332.42
733.00	54310.57
734.00	54408.87
735.00	54165.46
736.00	53677.07
737.00	53170.73
738.00	52821.99
739.00	53049.02
740.00	53412.59
741.00	53956.37
742.00	54211.49
743.00	54379.23
744.00	54482.21
745.00	54843.43
746.00	55158.62
747.00	55656.38
748.00	55820.22
749.00	56037.89
750.00	55790.57
751.00	55578.36
752.00	55440.27
753.00	55299.06
754.00	55233.52
755.00	55075.15
756.00	55024.43
757.00	54838.75
758.00	54694.42
759.00	54433.06
760.00	54178.72
761.00	53988.36
762.00	54051.55
763.00	54407.31
764.00	54843.43
765.00	55269.41
766.00	55709.43
767.00	55995.76
768.00	56096.40
769.00	55964.55
770.00	55736.74
771.00	55452.75
772.00	55377.08
773.00	55448.07
774.00	55534.67
775.00	55508.93
776.00	55437.93
777.00	55589.28
778.00	55742.98
779.00	55928.66
780.00	56135.41
781.00	56451.38
782.00	56640.18
783.00	56573.09
784.00	56378.04
785.00	55948.17
786.00	55707.09
787.00	55456.65
788.00	55535.45
789.00	55483.18
790.00	55370.83
791.00	55340.41
792.00	55323.24
793.00	55283.45
794.00	55101.67
795.00	54968.26
796.00	54902.73
797.00	54897.27
798.00	54996.35
799.00	55132.88
800.00	55341.97
801.00	55427.01
802.00	55586.94
803.00	55576.02
804.00	55745.32
805.00	55934.12
806.00	56051.15
807.00	55799.93
808.00	55054.86
809.00	53975.87
810.00	52669.08
811.00	51223.40
812.00	50007.89
813.00	49308.07
814.00	49809.72
815.00	51177.37
816.00	52822.77
817.00	53719.20
818.00	53581.88
819.00	52906.25
820.00	52200.19
821.00	52035.57
822.00	52224.37
823.00	52876.60
824.00	53459.40
825.00	54074.18
826.00	54365.18
827.00	54770.10
828.00	55065.00
829.00	55518.29
830.00	55850.64
831.00	55913.84
832.00	55766.38
833.00	55458.21
834.00	55325.58
835.00	55328.70
836.00	55544.81
837.00	55815.54
838.00	55979.37
839.00	56099.52
840.00	56220.45
841.00	56382.73
842.00	56407.69
843.00	56253.22
844.00	55870.93
845.00	55444.95
846.00	55047.84
847.00	54872.30
848.00	54951.88
849.00	55267.85
850.00	55652.48
851.00	55984.83
852.00	56390.53
853.00	56763.45
854.00	57062.26
855.00	57142.62
856.00	57055.24
857.00	56943.67
858.00	56782.18
859.00	56566.07
860.00	56430.32
861.00	56394.43
862.00	56649.55
863.00	56756.43
864.00	56558.27
865.00	55995.76
866.00	55159.41
867.00	54255.18
868.00	53248.75
869.00	52547.37
870.00	52241.54
871.00	52378.85
872.00	52852.42
873.00	53581.10
874.00	54406.53
875.00	55030.68
876.00	55338.07
877.00	55531.55
878.00	55728.94
879.00	56037.89
880.00	56342.94
881.00	56651.89
882.00	56856.29
883.00	57021.69
884.00	56944.45
885.00	56633.16
886.00	56197.04
887.00	55845.96
888.00	55718.79
889.00	55754.68
890.00	55970.79
891.00	56328.89
892.00	56629.26
893.00	56762.67
894.00	56781.40
895.00	56772.81
896.00	56740.83
897.00	56580.11
898.00	56516.14
899.00	56367.12
900.00	56211.09
901.00	55693.83
902.00	55128.98
903.00	54513.42
904.00	54015.66
905.00	53943.11
906.00	54166.24
907.00	54721.72
908.00	55128.20
909.00	55555.74
910.00	55682.91
911.00	55635.31
912.00	55395.02
913.00	55246.01
914.00	55214.02
915.00	55288.13
916.00	55409.06
917.00	55613.47
918.00	55748.44
919.00	55913.84
920.00	56184.56
921.00	56478.69
922.00	56644.87
923.00	56492.73
924.00	56190.80
925.00	55781.99
926.00	55412.96
927.00	54985.43
928.00	54539.16
929.00	54384.69
930.00	54383.91
931.00	54661.65
932.00	54887.12
933.00	55169.55
934.00	55421.55
935.00	55433.25
936.00	55459.77
937.00	55380.98
938.00	55316.22
939.00	55322.46
940.00	55140.68
941.00	54988.55
942.00	54637.47
943.00	54498.59
944.00	54177.94
945.00	54045.31
946.00	53844.02
947.00	53741.04
948.00	53687.99
949.00	53443.01
950.00	53415.71
951.00	53126.26
952.00	53068.53
953.00	52948.38
954.00	53166.05
955.00	53479.68
956.00	53936.09
957.00	54129.57
958.00	54323.05
959.00	54372.20
960.00	54309.01
961.00	54126.45
962.00	54076.52
963.00	54071.06
964.00	54149.85
965.00	53970.41
966.00	54031.27
967.00	54004.74
968.00	54127.23
969.00	54285.61
970.00	54667.89
971.00	55063.44
972.00	55207.78
973.00	54919.89
974.00	54616.40
975.00	54472.85
976.00	54534.48
977.00	54595.34
978.00	54463.49
979.00	54449.44
980.00	54247.38
981.00	54394.83
982.00	54270.78
983.00	54204.47
984.00	54034.39
985.00	53982.90
986.00	53968.85
987.00	53925.16
988.00	54020.34
989.00	53944.67
990.00	53876.01
991.00	53473.44
992.00	53298.68
993.00	52952.28
994.00	53057.60
995.00	53164.49
996.00	53516.35
997.00	53822.18
998.00	54022.68
999.00	54088.22
1000.00	54122.55
1001.00	54109.28
1002.00	54020.34
1003.00	53837.00
1004.00	53899.42
1005.00	53922.82
1006.00	53877.57
1007.00	53762.89
1008.00	53750.40
1009.00	53619.33
1010.00	53581.10
1011.00	53435.21
1012.00	53556.92
1013.00	53296.34
1014.00	53251.09
1015.00	53244.07
1016.00	53501.53
1017.00	53663.02
1018.00	53778.49
1019.00	53821.40
1020.00	53792.53
1021.00	53652.10
1022.00	53515.57
1023.00	53183.21
1024.00	52949.94
1025.00	52860.22
1026.00	53032.64
1027.00	53157.47
1028.00	53237.83
1029.00	53304.92
1030.00	53344.71
1031.00	53563.16
1032.00	53643.52
1033.00	53915.02
1034.00	53837.78
1035.00	53851.05
1036.00	53721.54
1037.00	53752.74
1038.00	53748.84
1039.00	53575.64
1040.00	53393.86
1041.00	53220.66
1042.00	53126.26
1043.00	53068.53
1044.00	52871.14
1045.00	52746.31
1046.00	52452.19
1047.00	52303.17
1048.00	52076.14
1049.00	52004.36
1050.00	52023.09
1051.00	52068.34
1052.00	52204.09
1053.00	52359.34
1054.00	52649.57
1055.00	52529.42
1056.00	52187.70
1057.00	51678.25
1058.00	51232.77
1059.00	50831.75
1060.00	50517.34
1061.00	50418.26
1062.00	50635.93
1063.00	50855.94
1064.00	51125.10
1065.00	51036.94
1066.00	51028.36
1067.00	50957.36
1068.00	51160.21
1069.00	51280.36
1070.00	51595.55
1071.00	51956.77
1072.00	52345.30
1073.00	52313.31
1074.00	52150.26
1075.00	51750.80
1076.00	51441.85
1077.00	51039.28
1078.00	50960.48
1079.00	50884.03
1080.00	50983.11
1081.00	51012.76
1082.00	51189.08
1083.00	51322.49
1084.00	51392.70
1085.00	51614.27
1086.00	51676.69
1087.00	51742.22
1088.00	51475.40
1089.00	51275.68
1090.00	50956.58
1091.00	50862.96
1092.00	50758.42
1093.00	50841.90
1094.00	50788.06
1095.00	50886.37
1096.00	50830.97
1097.00	50798.99
1098.00	50569.61
1099.00	50305.91
1100.00	50003.20
1101.00	49648.22
1102.00	49313.53
1103.00	49149.69
1104.00	49149.69
1105.00	49372.82
1106.00	49510.13
1107.00	49760.57
1108.00	49958.73
1109.00	50310.60
1110.00	50546.21
1111.00	50635.15
1112.00	50518.12
1113.00	50366.77
1114.00	50174.84
1115.00	49874.48
1116.00	49448.50
1117.00	49066.99
1118.00	48737.76
1119.00	48416.32
1120.00	48161.98
1121.00	48019.99
1122.00	48195.53
1123.00	48315.68
1124.00	48630.09
1125.00	48686.26
1126.00	48754.14
1127.00	48581.72
1128.00	48373.41
1129.00	48051.20
1130.00	47614.30
1131.00	47238.25
1132.00	46948.81
1133.00	46511.91
1134.00	46174.09
1135.00	46096.85
1136.00	46458.85
1137.00	46862.21
1138.00	47186.76
1139.00	47690.76
1140.00	47921.69
1141.00	48086.31
1142.00	48009.07
1143.00	48191.63
1144.00	48271.21
1145.00	48307.88
1146.00	48225.18
1147.00	48037.94
1148.00	47923.25
1149.00	47708.70
1150.00	47665.01
1151.00	47565.15
1152.00	47530.04
1153.00	47567.49
1154.00	47400.53
1155.00	47334.99
1156.00	46963.63
1157.00	46797.45
1158.00	46430.77
1159.00	46286.43
1160.00	46053.16
1161.00	45916.63
1162.00	45793.36
1163.00	45736.41
1164.00	45618.60
1165.00	45665.41
1166.00	45585.05
1167.00	45850.31
1168.00	46004.79
1169.00	46222.46
1170.00	46302.82
1171.00	46220.90
1172.00	46128.84
1173.00	45988.41
1174.00	45803.50
1175.00	45665.41
1176.00	45253.48
1177.00	45046.73
1178.00	44656.64
1179.00	44382.80
1180.00	44113.64
1181.00	44176.83
1182.00	44399.96
1183.00	44614.51
1184.00	44757.28
1185.00	44943.75
1186.00	45028.01
1187.00	45230.85
1188.00	45311.21
1189.00	45595.20
1190.00	45533.56
1191.00	45658.39
1192.00	45313.55
1193.00	45418.88
1194.00	45274.54
1195.00	45540.58
1196.00	45505.48
1197.00	45392.35
1198.00	45198.09
1199.00	45201.21
1200.00	45308.09
1201.00	45531.22
1202.00	45510.16
1203.00	45691.94
1204.00	45847.97
1205.00	45879.18
1206.00	45762.15
1207.00	45666.19
1208.00	45720.02
1209.00	45823.01
1210.00	45855.00
1211.00	45840.17
1212.00	45826.13
1213.00	45708.32
1214.00	45617.82
1215.00	45527.32
