SpectraSuite Data File
++++++++++++++++++++++++++++++++++++
Date: Thu Nov 16 13:32:47 EST 2017
User: cheriyan
Dark Spectrum Present: No
Reference Spectrum Present: No
Number of Sampled Component Spectra: 1
Spectrometers: USB2+H05261
Integration Time (usec): 90000 (USB2+H05261)
Spectra Averaged: 1 (USB2+H05261)
Boxcar Smoothing: 1 (USB2+H05261)
Correct for Electrical Dark: No (USB2+H05261)
Strobe/Lamp Enabled: No (USB2+H05261)
Correct for Detector Non-linearity: No (USB2+H05261)
Correct for Stray Light: No (USB2+H05261)
Number of Pixels in Processed Spectrum: 2048
>>>>>Begin Processed Spectral Data<<<<<
0.00	355.76
1.00	355.76
2.00	333.14
3.00	313.63
4.00	298.81
5.00	304.27
6.00	311.29
7.00	262.92
8.00	241.86
9.00	222.35
10.00	235.61
11.00	240.30
12.00	240.30
13.00	266.82
14.00	263.70
15.00	251.22
16.00	237.17
17.00	254.34
18.00	276.96
19.00	299.59
20.00	307.39
21.00	305.83
22.00	338.60
23.00	802.80
24.00	2530.90
25.00	4343.25
26.00	5714.81
27.00	5782.68
28.00	5639.13
29.00	5431.60
30.00	5259.96
31.00	5190.53
32.00	5302.09
33.00	5400.40
34.00	5385.57
35.00	5213.93
36.00	4992.36
37.00	4862.07
38.00	4810.58
39.00	4900.30
40.00	5021.23
41.00	5049.32
42.00	4951.79
43.00	4882.36
44.00	4997.82
45.00	5224.08
46.00	5547.85
47.00	5767.86
48.00	5888.01
49.00	5850.56
50.00	5823.25
51.00	5877.09
52.00	5926.24
53.00	5973.05
54.00	6081.49
55.00	6282.00
56.00	6592.51
57.00	6810.18
58.00	7078.56
59.00	7244.74
60.00	7421.06
61.00	7498.30
62.00	7403.89
63.00	7213.53
64.00	6935.79
65.00	6669.75
66.00	6420.09
67.00	6137.66
68.00	6021.42
69.00	6005.81
70.00	6217.24
71.00	6488.75
72.00	6758.69
73.00	6972.46
74.00	7066.08
75.00	7034.09
76.00	6882.74
77.00	6580.81
78.00	6338.95
79.00	6018.30
80.00	5795.95
81.00	5500.26
82.00	5224.86
83.00	5000.94
84.00	4808.24
85.00	4712.28
86.00	4621.00
87.00	4585.89
88.00	4563.26
89.00	4618.66
90.00	4802.78
91.00	5139.04
92.00	5644.59
93.00	6140.01
94.00	6499.67
95.00	6697.05
96.00	6750.89
97.00	6704.07
98.00	6491.87
99.00	6307.74
100.00	6241.43
101.00	6303.06
102.00	6441.93
103.00	6621.38
104.00	6835.14
105.00	6821.88
106.00	6696.27
107.00	6580.81
108.00	6657.26
109.00	6759.47
110.00	6813.30
111.00	6793.01
112.00	6734.50
113.00	6693.93
114.00	6761.81
115.00	6949.05
116.00	7220.55
117.00	7595.04
118.00	7934.42
119.00	8309.68
120.00	8549.98
121.00	8753.60
122.00	8754.38
123.00	8697.43
124.00	8796.51
125.00	8986.10
126.00	9309.87
127.00	9557.97
128.00	9703.08
129.00	9734.29
130.00	9485.41
131.00	9256.04
132.00	8815.24
133.00	8397.06
134.00	7805.69
135.00	7178.42
136.00	6410.73
137.00	5646.93
138.00	4992.36
139.00	4829.31
140.00	4985.34
141.00	5552.53
142.00	6257.03
143.00	7041.89
144.00	7820.51
145.00	8427.49
146.00	9064.89
147.00	9618.82
148.00	10093.17
149.00	10301.48
150.00	10306.16
151.00	10043.24
152.00	9544.70
153.00	8758.28
154.00	7860.30
155.00	6917.84
156.00	6208.66
157.00	5880.99
158.00	6175.11
159.00	6926.43
160.00	8030.38
161.00	9292.71
162.00	10514.47
163.00	11447.56
164.00	12094.33
165.00	12525.77
166.00	12872.95
167.00	13220.91
168.00	13570.43
169.00	13870.79
170.00	14022.15
171.00	14097.83
172.00	14208.61
173.00	14254.64
174.00	14433.30
175.00	14551.11
176.00	14670.48
177.00	14782.04
178.00	14885.03
179.00	15101.92
180.00	15284.48
181.00	15485.76
182.00	15659.74
183.00	15796.28
184.00	15893.02
185.00	15988.20
186.00	15890.68
187.00	15793.94
188.00	15504.49
189.00	15191.64
190.00	15053.55
191.00	15353.13
192.00	15676.13
193.00	16049.83
194.00	16088.06
195.00	15927.35
196.00	15658.18
197.00	15363.28
198.00	15498.25
199.00	15567.68
200.00	15750.24
201.00	15789.25
202.00	15726.06
203.00	15551.30
204.00	15335.97
205.00	15279.80
206.00	15208.80
207.00	15250.15
208.00	15403.85
209.00	15663.65
210.00	15798.62
211.00	15783.79
212.00	15723.72
213.00	15859.47
214.00	16153.60
215.00	16503.90
216.00	16889.31
217.00	17217.76
218.00	17515.79
219.00	17822.40
220.00	17882.47
221.00	17919.92
222.00	17529.05
223.00	16943.92
224.00	16183.24
225.00	15591.09
226.00	15396.04
227.00	15656.62
228.00	16055.29
229.00	16670.08
230.00	17146.76
231.00	17810.70
232.00	18313.13
233.00	18734.43
234.00	18856.92
235.00	19053.52
236.00	19090.97
237.00	19222.82
238.00	19016.07
239.00	18902.95
240.00	18540.94
241.00	18420.80
242.00	18376.33
243.00	18436.40
244.00	18728.97
245.00	18922.45
246.00	19342.19
247.00	19340.63
248.00	19373.39
249.00	19250.91
250.00	19344.53
251.00	19404.60
252.00	19495.10
253.00	19381.20
254.00	19463.11
255.00	19818.10
256.00	20351.74
257.00	20822.19
258.00	20944.67
259.00	20985.24
260.00	20876.02
261.00	20646.65
262.00	20251.10
263.00	20006.12
264.00	19860.23
265.00	19924.98
266.00	19954.63
267.00	20114.56
268.00	20201.94
269.00	20194.92
270.00	20180.10
271.00	20322.09
272.00	20567.85
273.00	20840.13
274.00	20763.67
275.00	20570.97
276.00	20335.35
277.00	20094.28
278.00	20048.25
279.00	20255.00
280.00	20855.73
281.00	21491.58
282.00	21921.46
283.00	22115.72
284.00	22114.16
285.00	22168.77
286.00	22214.80
287.00	21999.48
288.00	21679.60
289.00	21123.33
290.00	20634.94
291.00	20013.92
292.00	19831.36
293.00	20078.68
294.00	20563.17
295.00	20913.47
296.00	21042.20
297.00	21042.20
298.00	21234.90
299.00	21241.92
300.00	21358.17
301.00	21019.57
302.00	20993.83
303.00	20854.95
304.00	20817.50
305.00	20826.87
306.00	20581.89
307.00	20476.57
308.00	20150.45
309.00	20194.14
310.00	20365.00
311.00	20751.19
312.00	20924.39
313.00	20811.26
314.00	20221.45
315.00	19560.64
316.00	19172.11
317.00	19159.63
318.00	19555.96
319.00	19964.77
320.00	20392.31
321.00	20375.14
322.00	20225.35
323.00	19896.11
324.00	19767.38
325.00	19609.79
326.00	19463.90
327.00	19286.79
328.00	18718.04
329.00	18040.07
330.00	17227.12
331.00	16407.94
332.00	15629.32
333.00	14977.09
334.00	14822.61
335.00	15044.18
336.00	15845.43
337.00	17050.02
338.00	18879.54
339.00	20574.09
340.00	22036.14
341.00	22621.28
342.00	22450.42
343.00	21887.91
344.00	21281.71
345.00	21365.19
346.00	21957.35
347.00	22617.38
348.00	22969.24
349.00	22695.39
350.00	21881.67
351.00	20865.10
352.00	20059.95
353.00	20197.26
354.00	20702.04
355.00	21504.84
356.00	22125.08
357.00	22615.82
358.00	22852.21
359.00	23009.03
360.00	23193.15
361.00	23708.85
362.00	24077.87
363.00	24606.83
364.00	24748.04
365.00	24790.17
366.00	24557.68
367.00	24396.18
368.00	24084.11
369.00	23745.52
370.00	23445.15
371.00	23343.72
372.00	23194.71
373.00	22916.19
374.00	22255.37
375.00	21790.39
376.00	21369.09
377.00	21567.26
378.00	21919.12
379.00	22647.02
380.00	23325.00
381.00	23948.36
382.00	24371.22
383.00	24613.85
384.00	24557.68
385.00	24294.76
386.00	24070.85
387.00	24311.92
388.00	24806.56
389.00	25518.08
390.00	26057.96
391.00	26419.97
392.00	26724.24
393.00	27101.06
394.00	27481.01
395.00	27725.21
396.00	27828.97
397.00	28011.53
398.00	28302.54
399.00	28496.80
400.00	28333.75
401.00	28265.87
402.00	28187.07
403.00	28501.48
404.00	28545.95
405.00	28645.82
406.00	28789.37
407.00	28735.54
408.00	28517.87
409.00	28377.44
410.00	28612.27
411.00	28728.52
412.00	28344.67
413.00	27708.04
414.00	27055.81
415.00	26532.31
416.00	26345.85
417.00	26514.37
418.00	27052.69
419.00	27493.49
420.00	27957.70
421.00	28403.96
422.00	28758.94
423.00	29039.81
424.00	29311.31
425.00	29571.11
426.00	29622.60
427.00	29327.69
428.00	29166.98
429.00	29154.49
430.00	29206.77
431.00	29065.55
432.00	28905.62
433.00	28938.38
434.00	29146.69
435.00	29472.81
436.00	29624.94
437.00	29864.46
438.00	30064.96
439.00	30455.83
440.00	31072.95
441.00	31560.56
442.00	31763.41
443.00	31582.41
444.00	31382.68
445.00	31301.54
446.00	31070.61
447.00	30945.00
448.00	30777.26
449.00	30607.97
450.00	30352.07
451.00	29880.06
452.00	29334.71
453.00	28723.83
454.00	28371.19
455.00	28215.94
456.00	28469.50
457.00	28946.19
458.00	29519.62
459.00	29914.39
460.00	30260.79
461.00	30459.73
462.00	30560.37
463.00	30384.05
464.00	30140.64
465.00	29946.37
466.00	29797.36
467.00	30142.20
468.00	30288.09
469.00	30895.85
470.00	31271.90
471.00	31744.69
472.00	31699.44
473.00	31561.34
474.00	31743.13
475.00	32002.14
476.00	32194.07
477.00	32438.26
478.00	32637.21
479.00	32802.61
480.00	32204.21
481.00	31917.89
482.00	31406.87
483.00	31158.77
484.00	31129.91
485.00	31292.18
486.00	31676.03
487.00	31566.03
488.00	31596.45
489.00	31572.27
490.00	31527.80
491.00	31545.74
492.00	31602.69
493.00	31786.04
494.00	31930.37
495.00	32046.62
496.00	32423.44
497.00	32605.22
498.00	32829.91
499.00	32917.29
500.00	32947.72
501.00	32986.73
502.00	33065.53
503.00	33188.80
504.00	33410.37
505.00	33450.94
506.00	33609.31
507.00	33650.66
508.00	33578.11
509.00	33583.57
510.00	33510.23
511.00	33436.89
512.00	33277.74
513.00	33085.81
514.00	33016.38
515.00	32933.68
516.00	32737.85
517.00	32407.06
518.00	32084.84
519.00	31871.07
520.00	32137.90
521.00	32369.61
522.00	32494.44
523.00	32642.67
524.00	32911.83
525.00	33407.25
526.00	33075.67
527.00	32652.03
528.00	31925.69
529.00	31584.75
530.00	31267.22
531.00	31296.08
532.00	31617.52
533.00	32052.86
534.00	32308.76
535.00	32485.08
536.00	32288.47
537.00	32346.20
538.00	32301.73
539.00	32523.30
540.00	32686.36
541.00	32620.05
542.00	32611.46
543.00	32631.75
544.00	32689.48
545.00	32661.40
546.00	32244.00
547.00	32032.57
548.00	31787.60
549.00	31897.60
550.00	31715.04
551.00	31800.08
552.00	31758.73
553.00	32067.68
554.00	32322.02
555.00	32869.70
556.00	33365.12
557.00	33919.82
558.00	34394.95
559.00	34920.01
560.00	35142.36
561.00	35072.93
562.00	34553.33
563.00	34153.10
564.00	33656.12
565.00	33741.94
566.00	34027.49
567.00	34284.95
568.00	34451.13
569.00	34217.07
570.00	34600.92
571.00	35053.42
572.00	35513.73
573.00	35793.81
574.00	35694.73
575.00	35702.53
576.00	35566.00
577.00	35522.31
578.00	35732.18
579.00	35692.39
580.00	35617.49
581.00	35310.10
582.00	35406.84
583.00	35551.96
584.00	35891.34
585.00	36193.26
586.00	36786.98
587.00	37129.48
588.00	37355.73
589.00	37649.86
590.00	38089.88
591.00	38547.06
592.00	38855.23
593.00	39082.27
594.00	38836.51
595.00	38510.39
596.00	38470.61
597.00	38866.16
598.00	39516.82
599.00	39953.72
600.00	40565.38
601.00	40664.47
602.00	40715.96
603.00	40615.32
604.00	40836.89
605.00	41333.08
606.00	41385.35
607.00	41454.79
608.00	41431.38
609.00	41896.37
610.00	42315.33
611.00	42598.53
612.00	42869.25
613.00	43256.22
614.00	43442.68
615.00	43632.27
616.00	43505.88
617.00	43608.08
618.00	43729.79
619.00	43939.66
620.00	44021.58
621.00	44066.05
622.00	44144.06
623.00	44559.90
624.00	44398.40
625.00	44275.91
626.00	43964.62
627.00	44102.71
628.00	44421.03
629.00	44928.14
630.00	45448.52
631.00	45343.20
632.00	44460.04
633.00	43610.42
634.00	42335.61
635.00	40574.75
636.00	38667.99
637.00	37954.13
638.00	38606.36
639.00	39760.24
640.00	40815.04
641.00	41841.76
642.00	42841.95
643.00	43753.97
644.00	44657.42
645.00	45399.37
646.00	46339.49
647.00	46951.15
648.00	47516.78
649.00	47732.11
650.00	47650.19
651.00	47393.51
652.00	46929.30
653.00	46890.29
654.00	47245.27
655.00	48349.23
656.00	49420.41
657.00	50398.76
658.00	50854.38
659.00	51191.42
660.00	51287.38
661.00	51309.22
662.00	51164.89
663.00	50967.51
664.00	50751.40
665.00	50672.60
666.00	50799.77
667.00	50593.80
668.00	50103.07
669.00	49333.81
670.00	48942.94
671.00	49107.56
672.00	49705.96
673.00	50604.72
674.00	51507.39
675.00	52179.90
676.00	52379.63
677.00	52239.98
678.00	51872.51
679.00	51750.02
680.00	51781.23
681.00	52103.45
682.00	52687.02
683.00	53337.69
684.00	54014.88
685.00	54307.45
686.00	54425.26
687.00	54348.80
688.00	54031.27
689.00	53689.55
690.00	53396.20
691.00	53254.99
692.00	53372.02
693.00	53710.61
694.00	54248.16
695.00	54632.00
696.00	54764.63
697.00	54777.90
698.00	54853.58
699.00	55002.59
700.00	55242.10
701.00	55311.54
702.00	55217.14
703.00	54914.43
704.00	54464.27
705.00	53985.24
706.00	53779.27
707.00	53823.74
708.00	54245.82
709.00	54635.91
710.00	55111.81
711.00	55427.79
712.00	55562.76
713.00	55430.91
714.00	55276.43
715.00	54930.81
716.00	54613.28
717.00	54252.06
718.00	54010.98
719.00	53964.95
720.00	54008.64
721.00	54045.31
722.00	53985.24
723.00	53704.37
724.00	53587.35
725.00	53357.97
726.00	53442.23
727.00	53743.38
728.00	54082.76
729.00	54443.98
730.00	54621.08
731.00	54928.47
732.00	55121.18
733.00	55189.83
734.00	55096.21
735.00	54882.44
736.00	54568.03
737.00	54142.83
738.00	53788.63
739.00	53840.90
740.00	54303.55
741.00	54885.56
742.00	55141.46
743.00	55278.77
744.00	55333.38
745.00	55686.03
746.00	55932.56
747.00	56352.30
748.00	56552.02
749.00	56822.75
750.00	56793.88
751.00	56553.58
752.00	56255.56
753.00	55963.77
754.00	55968.45
755.00	55955.97
756.00	56033.99
757.00	55783.55
758.00	55598.65
759.00	55195.29
760.00	54910.53
761.00	54741.23
762.00	54884.00
763.00	55235.86
764.00	55664.96
765.00	56073.77
766.00	56601.96
767.00	56868.78
768.00	56864.10
769.00	56711.96
770.00	56507.55
771.00	56337.47
772.00	56231.37
773.00	56152.57
774.00	56240.73
775.00	56170.52
776.00	56186.90
777.00	56278.18
778.00	56396.77
779.00	56752.53
780.00	56969.42
781.00	57269.01
782.00	57344.69
783.00	57258.09
784.00	57042.76
785.00	56710.40
786.00	56477.13
787.00	56259.46
788.00	56179.88
789.00	56193.14
790.00	56254.78
791.00	56288.32
792.00	56263.36
793.00	56070.65
794.00	55870.15
795.00	55561.20
796.00	55643.90
797.00	55679.00
798.00	55901.36
799.00	55890.43
800.00	56017.60
801.00	56064.41
802.00	56204.84
803.00	56278.96
804.00	56524.72
805.00	56850.83
806.00	56954.60
807.00	56674.51
808.00	55888.87
809.00	54779.46
810.00	53469.54
811.00	51980.18
812.00	50958.14
813.00	50440.89
814.00	51010.42
815.00	52065.22
816.00	53524.93
817.00	54324.61
818.00	54355.04
819.00	53800.33
820.00	53166.05
821.00	52963.20
822.00	53200.38
823.00	53805.80
824.00	54443.20
825.00	54795.06
826.00	54984.65
827.00	55380.20
828.00	55762.48
829.00	56243.07
830.00	56406.91
831.00	56518.48
832.00	56485.71
833.00	56175.20
834.00	55979.37
835.00	55989.52
836.00	56415.49
837.00	56686.21
838.00	56814.94
839.00	56832.11
840.00	57024.03
841.00	57209.71
842.00	57212.06
843.00	56953.04
844.00	56529.40
845.00	56107.32
846.00	55849.86
847.00	55686.03
848.00	55796.81
849.00	56060.51
850.00	56428.76
851.00	56825.09
852.00	57116.87
853.00	57588.88
854.00	57791.73
855.00	57923.58
856.00	57713.71
857.00	57567.82
858.00	57394.62
859.00	57222.20
860.00	57143.40
861.00	57128.58
862.00	57329.86
863.00	57371.21
864.00	57256.53
865.00	56743.17
866.00	55973.13
867.00	55045.50
868.00	54039.85
869.00	53446.13
870.00	53093.49
871.00	53386.06
872.00	53812.04
873.00	54578.17
874.00	55288.13
875.00	55922.42
876.00	56274.28
877.00	56399.89
878.00	56533.30
879.00	56706.50
880.00	57052.12
881.00	57359.51
882.00	57612.29
883.00	57762.08
884.00	57613.85
885.00	57201.91
886.00	56701.04
887.00	56384.29
888.00	56380.38
889.00	56430.32
890.00	56745.51
891.00	56970.20
892.00	57304.12
893.00	57452.35
894.00	57558.45
895.00	57554.55
896.00	57463.27
897.00	57438.31
898.00	57283.83
899.00	57063.82
900.00	56718.20
901.00	56304.71
902.00	55848.30
903.00	55402.04
904.00	55072.81
905.00	54937.05
906.00	55082.95
907.00	55423.11
908.00	55839.72
909.00	56295.35
910.00	56388.97
911.00	56320.31
912.00	56061.29
913.00	56082.36
914.00	56130.73
915.00	56246.19
916.00	56229.81
917.00	56296.13
918.00	56470.89
919.00	56659.69
920.00	56949.92
921.00	57091.13
922.00	57297.09
923.00	57210.49
924.00	57000.63
925.00	56563.73
926.00	56083.92
927.00	55643.12
928.00	55134.44
929.00	54938.61
930.00	54870.74
931.00	55242.10
932.00	55668.86
933.00	55988.73
934.00	56141.65
935.00	56154.13
936.00	56183.78
937.00	56268.04
938.00	56163.49
939.00	56129.95
940.00	56070.65
941.00	55842.84
942.00	55628.29
943.00	55321.68
944.00	55191.39
945.00	54955.78
946.00	54815.35
947.00	54630.44
948.00	54534.48
949.00	54270.00
950.00	54103.82
951.00	53915.02
952.00	53799.55
953.00	53821.40
954.00	54030.49
955.00	54400.29
956.00	54742.79
957.00	54890.24
958.00	55108.69
959.00	55147.70
960.00	55118.84
961.00	54827.05
962.00	54855.14
963.00	54933.93
964.00	55012.73
965.00	54792.72
966.00	54725.63
967.00	54853.58
968.00	55102.45
969.00	55281.11
970.00	55540.13
971.00	55803.83
972.00	55931.78
973.00	55727.38
974.00	55414.52
975.00	55246.79
976.00	55208.56
977.00	55249.13
978.00	55248.35
979.00	55196.07
980.00	55143.80
981.00	55291.26
982.00	55244.44
983.00	55185.15
984.00	54950.32
985.00	54956.56
986.00	54970.60
987.00	54866.84
988.00	54961.24
989.00	54830.17
990.00	54847.33
991.00	54439.30
992.00	54236.45
993.00	53939.99
994.00	54015.66
995.00	54091.34
996.00	54296.53
997.00	54564.13
998.00	54892.58
999.00	55040.82
1000.00	55050.18
1001.00	55089.97
1002.00	54989.33
1003.00	54855.92
1004.00	54717.82
1005.00	54784.14
1006.00	54764.63
1007.00	54631.22
1008.00	54603.92
1009.00	54514.20
1010.00	54546.96
1011.00	54348.02
1012.00	54340.22
1013.00	54167.02
1014.00	54058.57
1015.00	54054.67
1016.00	54192.76
1017.00	54584.41
1018.00	54784.14
1019.00	54834.07
1020.00	54643.71
1021.00	54443.20
1022.00	54123.33
1023.00	53826.86
1024.00	53588.91
1025.00	53740.26
1026.00	53854.95
1027.00	54070.28
1028.00	54132.69
1029.00	54294.97
1030.00	54349.58
1031.00	54514.20
1032.00	54508.74
1033.00	54641.37
1034.00	54548.53
1035.00	54596.12
1036.00	54589.09
1037.00	54706.12
1038.00	54632.78
1039.00	54437.74
1040.00	54193.54
1041.00	54014.88
1042.00	53812.82
1043.00	53705.93
1044.00	53698.91
1045.00	53709.05
1046.00	53613.87
1047.00	53292.44
1048.00	53130.16
1049.00	52879.72
1050.00	52977.25
1051.00	52883.62
1052.00	53103.63
1053.00	53194.14
1054.00	53378.26
1055.00	53282.30
1056.00	53007.67
1057.00	52730.71
1058.00	52176.00
1059.00	51876.41
1060.00	51513.63
1061.00	51505.83
1062.00	51491.79
1063.00	51602.57
1064.00	51696.97
1065.00	51825.70
1066.00	51819.46
1067.00	51821.80
1068.00	51838.97
1069.00	52062.10
1070.00	52562.19
1071.00	53018.60
1072.00	53388.40
1073.00	53349.39
1074.00	53140.30
1075.00	52690.92
1076.00	52227.49
1077.00	51921.66
1078.00	51760.17
1079.00	51825.70
1080.00	51777.33
1081.00	51903.72
1082.00	52002.80
1083.00	52172.88
1084.00	52289.91
1085.00	52390.55
1086.00	52470.13
1087.00	52349.20
1088.00	52136.99
1089.00	51948.19
1090.00	51775.77
1091.00	51778.89
1092.00	51753.93
1093.00	51718.04
1094.00	51812.44
1095.00	51785.91
1096.00	51774.21
1097.00	51613.49
1098.00	51556.54
1099.00	51463.70
1100.00	51085.31
1101.00	50750.62
1102.00	50373.79
1103.00	50217.75
1104.00	50165.48
1105.00	50231.80
1106.00	50344.14
1107.00	50545.43
1108.00	50729.55
1109.00	51005.73
1110.00	51185.96
1111.00	51247.59
1112.00	51331.07
1113.00	51171.91
1114.00	51129.00
1115.00	50777.14
1116.00	50465.07
1117.00	50053.14
1118.00	49706.74
1119.00	49432.89
1120.00	49410.27
1121.00	49401.69
1122.00	49538.22
1123.00	49619.36
1124.00	49767.59
1125.00	49782.41
1126.00	49716.88
1127.00	49674.75
1128.00	49363.46
1129.00	49196.50
1130.00	48817.33
1131.00	48459.23
1132.00	47950.56
1133.00	47437.98
1134.00	47246.05
1135.00	47250.74
1136.00	47526.92
1137.00	47899.06
1138.00	48362.49
1139.00	48696.41
1140.00	48900.03
1141.00	48927.34
1142.00	49201.96
1143.00	49375.16
1144.00	49441.48
1145.00	49259.69
1146.00	49065.43
1147.00	48860.24
1148.00	48767.40
1149.00	48707.33
1150.00	48796.27
1151.00	48729.17
1152.00	48748.68
1153.00	48573.14
1154.00	48358.59
1155.00	48117.51
1156.00	47931.05
1157.00	47760.19
1158.00	47572.17
1159.00	47306.13
1160.00	47165.70
1161.00	46962.07
1162.00	46859.87
1163.00	46852.84
1164.00	46767.02
1165.00	46653.12
1166.00	46580.56
1167.00	46806.03
1168.00	47119.66
1169.00	47278.04
1170.00	47327.97
1171.00	47228.11
1172.00	47028.38
1173.00	46837.24
1174.00	46832.56
1175.00	46884.83
1176.00	46592.26
1177.00	46092.17
1178.00	45489.87
1179.00	45346.32
1180.00	45342.42
1181.00	45475.83
1182.00	45595.98
1183.00	45665.41
1184.00	45840.95
1185.00	45947.06
1186.00	46136.64
1187.00	46238.84
1188.00	46412.04
1189.00	46408.92
1190.00	46505.66
1191.00	46496.30
1192.00	46439.35
1193.00	46330.12
1194.00	46394.88
1195.00	46467.44
1196.00	46456.51
1197.00	46270.05
1198.00	46366.01
1199.00	46529.07
1200.00	46596.17
1201.00	46650.78
1202.00	46592.26
1203.00	46659.36
1204.00	46694.47
1205.00	46941.78
1206.00	46964.41
1207.00	47016.68
1208.00	46859.87
1209.00	46900.43
1210.00	46784.19
1211.00	46716.31
1212.00	46597.73
1213.00	46575.10
1214.00	46481.48
1215.00	46497.86
