SpectraSuite Data File
++++++++++++++++++++++++++++++++++++
Date: Thu Nov 16 13:32:51 EST 2017
User: cheriyan
Dark Spectrum Present: No
Reference Spectrum Present: No
Number of Sampled Component Spectra: 1
Spectrometers: USB2+H05261
Integration Time (usec): 90000 (USB2+H05261)
Spectra Averaged: 1 (USB2+H05261)
Boxcar Smoothing: 1 (USB2+H05261)
Correct for Electrical Dark: No (USB2+H05261)
Strobe/Lamp Enabled: No (USB2+H05261)
Correct for Detector Non-linearity: No (USB2+H05261)
Correct for Stray Light: No (USB2+H05261)
Number of Pixels in Processed Spectrum: 2048
>>>>>Begin Processed Spectral Data<<<<<
0.00	353.42
1.00	353.42
2.00	326.89
3.00	302.71
4.00	259.80
5.00	256.68
6.00	256.68
7.00	269.16
8.00	276.18
9.00	270.72
10.00	269.16
11.00	267.60
12.00	259.80
13.00	244.98
14.00	249.66
15.00	255.12
16.00	276.18
17.00	268.38
18.00	283.98
19.00	266.04
20.00	273.84
21.00	274.62
22.00	305.83
23.00	754.43
24.00	2491.89
25.00	4262.12
26.00	5689.06
27.00	5709.35
28.00	5584.52
29.00	5362.17
30.00	5182.73
31.00	5133.58
32.00	5139.04
33.00	5217.05
34.00	5191.31
35.00	5071.94
36.00	4876.90
37.00	4721.64
38.00	4643.62
39.00	4687.31
40.00	4808.24
41.00	4840.23
42.00	4812.92
43.00	4773.13
44.00	4920.59
45.00	5167.90
46.00	5450.33
47.00	5613.38
48.00	5755.38
49.00	5743.67
50.00	5776.44
51.00	5728.07
52.00	5786.58
53.00	5826.37
54.00	5944.18
55.00	6137.66
56.00	6403.71
57.00	6700.17
58.00	7011.46
59.00	7198.71
60.00	7321.20
61.00	7338.36
62.00	7244.74
63.00	7066.86
64.00	6793.01
65.00	6584.71
66.00	6336.61
67.00	6170.43
68.00	6054.97
69.00	6068.23
70.00	6184.48
71.00	6433.35
72.00	6725.92
73.00	6956.07
74.00	7001.32
75.00	6944.37
76.00	6732.94
77.00	6511.37
78.00	6182.13
79.00	5909.85
80.00	5643.81
81.00	5445.65
82.00	5195.99
83.00	4937.75
84.00	4734.90
85.00	4598.37
86.00	4540.64
87.00	4461.06
88.00	4514.11
89.00	4599.93
90.00	4831.65
91.00	5220.17
92.00	5683.60
93.00	6166.53
94.00	6455.20
95.00	6624.50
96.00	6687.69
97.00	6616.69
98.00	6479.38
99.00	6235.19
100.00	6118.16
101.00	6136.88
102.00	6321.01
103.00	6529.31
104.00	6643.22
105.00	6647.12
106.00	6611.23
107.00	6608.89
108.00	6581.59
109.00	6633.86
110.00	6693.93
111.00	6800.04
112.00	6748.54
113.00	6680.67
114.00	6622.94
115.00	6750.89
116.00	7048.13
117.00	7485.03
118.00	7840.79
119.00	8184.07
120.00	8356.49
121.00	8457.92
122.00	8461.82
123.00	8525.79
124.00	8713.81
125.00	8897.94
126.00	9094.54
127.00	9366.04
128.00	9513.50
129.00	9564.99
130.00	9306.75
131.00	9093.76
132.00	8677.93
133.00	8257.41
134.00	7582.56
135.00	6971.68
136.00	6223.48
137.00	5526.00
138.00	4936.97
139.00	4726.32
140.00	4928.39
141.00	5465.93
142.00	6152.49
143.00	6900.68
144.00	7584.90
145.00	8294.86
146.00	8950.21
147.00	9531.44
148.00	9871.60
149.00	10115.02
150.00	10080.69
151.00	9810.75
152.00	9242.78
153.00	8529.69
154.00	7673.84
155.00	6802.38
156.00	6097.88
157.00	5817.79
158.00	6033.90
159.00	6711.88
160.00	7811.15
161.00	9046.95
162.00	10334.25
163.00	11201.80
164.00	11834.53
165.00	12196.53
166.00	12656.06
167.00	12997.78
168.00	13337.93
169.00	13529.86
170.00	13664.83
171.00	13715.54
172.00	13802.14
173.00	13926.19
174.00	14024.49
175.00	14026.83
176.00	14145.42
177.00	14302.23
178.00	14663.46
179.00	14876.44
180.00	15080.85
181.00	15174.47
182.00	15264.19
183.00	15357.03
184.00	15415.55
185.00	15452.22
186.00	15442.85
187.00	15473.28
188.00	15357.04
189.00	15192.42
190.00	15010.64
191.00	15062.13
192.00	15327.39
193.00	15645.70
194.00	15773.65
195.00	15544.28
196.00	15221.28
197.00	15032.48
198.00	15176.81
199.00	15378.10
200.00	15617.61
201.00	15660.52
202.00	15626.98
203.00	15425.69
204.00	15188.52
205.00	15000.49
206.00	14821.83
207.00	14903.75
208.00	14973.97
209.00	15272.78
210.00	15360.94
211.00	15349.23
212.00	15246.25
213.00	15438.95
214.00	15775.21
215.00	16142.67
216.00	16333.82
217.00	16661.49
218.00	16886.97
219.00	17152.23
220.00	17205.28
221.00	17262.23
222.00	17012.57
223.00	16517.94
224.00	15931.25
225.00	15373.42
226.00	15222.84
227.00	15309.44
228.00	15811.10
229.00	16358.00
230.00	16964.20
231.00	17497.84
232.00	17892.62
233.00	18172.70
234.00	18332.64
235.00	18546.41
236.00	18681.38
237.00	18729.75
238.00	18500.37
239.00	18411.43
240.00	18162.56
241.00	18191.42
242.00	18166.46
243.00	18359.94
244.00	18666.55
245.00	18899.83
246.00	19058.98
247.00	18925.57
248.00	18828.83
249.00	18864.72
250.00	18987.99
251.00	19012.95
252.00	19082.39
253.00	19069.90
254.00	19252.47
255.00	19434.25
256.00	19899.23
257.00	20302.59
258.00	20530.40
259.00	20579.55
260.00	20468.76
261.00	20355.64
262.00	19994.42
263.00	19697.17
264.00	19447.51
265.00	19411.62
266.00	19518.51
267.00	19574.68
268.00	19726.04
269.00	19772.07
270.00	19849.30
271.00	19980.37
272.00	20262.80
273.00	20482.81
274.00	20368.12
275.00	20163.72
276.00	19985.83
277.00	19810.29
278.00	19694.83
279.00	19788.45
280.00	20335.35
281.00	20854.17
282.00	21394.06
283.00	21728.75
284.00	21844.22
285.00	21763.08
286.00	21710.81
287.00	21440.09
288.00	21201.35
289.00	20538.20
290.00	20013.92
291.00	19409.28
292.00	19169.77
293.00	19464.68
294.00	19993.64
295.00	20487.49
296.00	20656.79
297.00	20638.84
298.00	20734.03
299.00	20673.17
300.00	20730.90
301.00	20406.35
302.00	20376.70
303.00	20274.50
304.00	20306.49
305.00	20276.84
306.00	20191.80
307.00	20201.94
308.00	20005.34
309.00	19963.21
310.00	20113.00
311.00	20418.05
312.00	20431.32
313.00	20106.76
314.00	19603.55
315.00	19080.05
316.00	18870.96
317.00	18860.82
318.00	19190.05
319.00	19531.77
320.00	19906.26
321.00	19931.22
322.00	19717.45
323.00	19289.14
324.00	19179.13
325.00	19050.40
326.00	19076.93
327.00	18849.89
328.00	18491.01
329.00	17834.10
330.00	17105.42
331.00	16145.02
332.00	15431.93
333.00	14846.80
334.00	14738.35
335.00	14948.22
336.00	15455.34
337.00	16637.31
338.00	18300.65
339.00	20336.13
340.00	21762.30
341.00	22372.40
342.00	21931.60
343.00	21374.55
344.00	20690.34
345.00	20820.63
346.00	21292.63
347.00	21967.49
348.00	22352.90
349.00	22082.17
350.00	21416.68
351.00	20369.68
352.00	19680.00
353.00	19690.15
354.00	20322.09
355.00	21121.77
356.00	21747.48
357.00	22110.26
358.00	22263.96
359.00	22464.46
360.00	22699.30
361.00	23253.22
362.00	23623.81
363.00	23899.21
364.00	24014.68
365.00	23994.39
366.00	24017.02
367.00	23839.92
368.00	23736.93
369.00	23390.53
370.00	23215.77
371.00	22957.53
372.00	22920.87
373.00	22404.39
374.00	21779.46
375.00	21268.45
376.00	20925.17
377.00	21079.64
378.00	21387.04
379.00	22097.00
380.00	22733.62
381.00	23403.02
382.00	23939.00
383.00	24221.42
384.00	24033.40
385.00	23764.24
386.00	23611.32
387.00	23759.56
388.00	24129.36
389.00	24737.12
390.00	25385.45
391.00	25901.93
392.00	26210.10
393.00	26551.82
394.00	26854.53
395.00	27174.40
396.00	27391.29
397.00	27607.40
398.00	27669.81
399.00	27830.53
400.00	27683.86
401.00	27700.24
402.00	27622.22
403.00	27852.38
404.00	28062.24
405.00	28034.94
406.00	28177.71
407.00	28089.55
408.00	27949.90
409.00	27804.00
410.00	27944.44
411.00	28104.37
412.00	27753.29
413.00	27121.35
414.00	26530.75
415.00	26182.79
416.00	25911.29
417.00	25933.14
418.00	26245.99
419.00	26752.32
420.00	27116.67
421.00	27617.54
422.00	28033.38
423.00	28485.88
424.00	28744.90
425.00	28998.46
426.00	29035.91
427.00	28747.24
428.00	28433.61
429.00	28290.06
430.00	28258.85
431.00	28367.29
432.00	28376.66
433.00	28392.26
434.00	28439.07
435.00	28664.54
436.00	28897.03
437.00	29134.21
438.00	29393.23
439.00	29854.31
440.00	30375.47
441.00	30749.96
442.00	30944.22
443.00	30861.52
444.00	30804.57
445.00	30689.10
446.00	30385.61
447.00	30252.20
448.00	30195.25
449.00	30089.15
450.00	29922.19
451.00	29291.80
452.00	28781.57
453.00	27948.34
454.00	27679.96
455.00	27651.09
456.00	27959.26
457.00	28364.95
458.00	28891.57
459.00	29262.16
460.00	29596.85
461.00	29718.56
462.00	29828.57
463.00	29679.55
464.00	29525.08
465.00	29433.80
466.00	29502.45
467.00	29717.00
468.00	29848.07
469.00	30213.20
470.00	30670.38
471.00	31117.42
472.00	31172.82
473.00	31133.81
474.00	31189.20
475.00	31332.75
476.00	31336.65
477.00	31576.17
478.00	31750.15
479.00	31929.59
480.00	31434.17
481.00	31185.30
482.00	30678.96
483.00	30405.90
484.00	30257.67
485.00	30478.46
486.00	30905.21
487.00	30931.74
488.00	30944.22
489.00	30968.41
490.00	30859.96
491.00	30724.21
492.00	30688.32
493.00	30909.89
494.00	31174.38
495.00	31327.29
496.00	31721.28
497.00	32096.55
498.00	32417.98
499.00	32472.59
500.00	32249.46
501.00	32121.51
502.00	32232.30
503.00	32487.42
504.00	32729.27
505.00	32670.76
506.00	32727.71
507.00	32987.51
508.00	33040.56
509.00	33086.59
510.00	32875.94
511.00	32761.26
512.00	32584.94
513.00	32303.29
514.00	32260.38
515.00	32157.40
516.00	32007.61
517.00	31800.86
518.00	31530.14
519.00	31324.17
520.00	31547.30
521.00	31784.48
522.00	32148.04
523.00	32216.69
524.00	32481.17
525.00	32655.93
526.00	32411.74
527.00	31939.73
528.00	31223.53
529.00	30791.31
530.00	30515.12
531.00	30682.86
532.00	30890.39
533.00	31310.13
534.00	31630.00
535.00	31930.37
536.00	31723.62
537.00	31540.28
538.00	31449.78
539.00	31610.50
540.00	31803.20
541.00	31966.26
542.00	31993.56
543.00	31933.49
544.00	31796.18
545.00	31805.54
546.00	31605.03
547.00	31453.68
548.00	31114.30
549.00	31065.93
550.00	30905.99
551.00	31143.95
552.00	31293.74
553.00	31621.42
554.00	31835.19
555.00	32364.15
556.00	32774.52
557.00	33307.38
558.00	33821.52
559.00	34117.99
560.00	34314.59
561.00	34063.38
562.00	33732.58
563.00	33421.29
564.00	33078.01
565.00	33245.75
566.00	33438.45
567.00	33567.18
568.00	33663.15
569.00	33642.86
570.00	34000.18
571.00	34532.26
572.00	35009.73
573.00	35112.72
574.00	34928.59
575.00	34863.84
576.00	35019.88
577.00	34930.16
578.00	34900.51
579.00	34586.88
580.00	34440.98
581.00	34305.23
582.00	34451.91
583.00	34689.08
584.00	35013.63
585.00	35431.03
586.00	35963.89
587.00	36094.96
588.00	36329.80
589.00	36667.61
590.00	37332.32
591.00	37794.19
592.00	38043.85
593.00	38009.52
594.00	37913.56
595.00	37769.22
596.00	37658.44
597.00	37892.49
598.00	38521.32
599.00	39255.46
600.00	39814.07
601.00	39850.74
602.00	39903.01
603.00	40006.78
604.00	40166.71
605.00	40587.23
606.00	40433.53
607.00	40850.15
608.00	40934.41
609.00	41384.57
610.00	41566.35
611.00	41774.66
612.00	42102.34
613.00	42377.74
614.00	42643.78
615.00	42763.93
616.00	42482.28
617.00	42453.42
618.00	42703.07
619.00	43136.07
620.00	43333.46
621.00	43389.63
622.00	43459.85
623.00	43699.36
624.00	43618.22
625.00	43565.95
626.00	43432.54
627.00	43587.02
628.00	43740.71
629.00	44045.76
630.00	44442.09
631.00	44400.74
632.00	43601.06
633.00	42594.63
634.00	41294.85
635.00	39675.20
636.00	37991.58
637.00	37255.09
638.00	37635.03
639.00	38641.46
640.00	39814.07
641.00	40896.96
642.00	41824.59
643.00	42636.76
644.00	43634.61
645.00	44481.88
646.00	45389.23
647.00	46067.20
648.00	46659.36
649.00	46982.35
650.00	46796.67
651.00	46390.20
652.00	45864.36
653.00	46007.91
654.00	46750.64
655.00	47888.14
656.00	48913.30
657.00	49699.72
658.00	50064.06
659.00	50309.82
660.00	50396.42
661.00	50521.24
662.00	50323.86
663.00	50111.65
664.00	49823.76
665.00	49802.70
666.00	49941.57
667.00	49856.53
668.00	49410.27
669.00	48758.04
670.00	48273.55
671.00	48437.39
672.00	48786.91
673.00	49695.81
674.00	50521.24
675.00	51310.00
676.00	51528.45
677.00	51432.49
678.00	51065.81
679.00	50987.79
680.00	51016.66
681.00	51441.85
682.00	52052.73
683.00	52682.34
684.00	53223.00
685.00	53529.61
686.00	53714.51
687.00	53724.66
688.00	53450.03
689.00	53218.32
690.00	52809.51
691.00	52686.24
692.00	52658.93
693.00	53088.81
694.00	53546.78
695.00	53922.04
696.00	54110.06
697.00	54101.48
698.00	54225.53
699.00	54176.38
700.00	54433.84
701.00	54486.11
702.00	54462.71
703.00	54035.95
704.00	53594.37
705.00	53191.79
706.00	53052.92
707.00	53163.71
708.00	53537.41
709.00	54025.03
710.00	54439.30
711.00	54852.80
712.00	55044.72
713.00	55055.64
714.00	54787.26
715.00	54373.77
716.00	53947.79
717.00	53753.52
718.00	53484.36
719.00	53429.75
720.00	53336.91
721.00	53338.47
722.00	53191.01
723.00	53095.05
724.00	53002.21
725.00	52962.42
726.00	52987.39
727.00	53304.14
728.00	53546.00
729.00	53748.84
730.00	53925.94
731.00	54250.50
732.00	54494.69
733.00	54621.08
734.00	54550.09
735.00	54281.70
736.00	53851.83
737.00	53354.85
738.00	53102.85
739.00	53139.52
740.00	53590.47
741.00	54124.89
742.00	54572.71
743.00	54688.96
744.00	54823.93
745.00	55019.75
746.00	55383.32
747.00	55808.51
748.00	56133.85
749.00	56317.19
750.00	56207.97
751.00	55951.29
752.00	55887.31
753.00	55661.06
754.00	55561.98
755.00	55285.01
756.00	55258.49
757.00	55125.86
758.00	54978.40
759.00	54623.42
760.00	54329.30
761.00	54182.62
762.00	54316.81
763.00	54727.19
764.00	55183.59
765.00	55600.21
766.00	55920.86
767.00	56193.14
768.00	56304.71
769.00	56147.89
770.00	55906.82
771.00	55598.65
772.00	55537.01
773.00	55513.61
774.00	55668.86
775.00	55723.47
776.00	55666.52
777.00	55672.76
778.00	55766.38
779.00	56138.53
780.00	56435.00
781.00	56765.79
782.00	56842.25
783.00	56841.47
784.00	56561.39
785.00	56128.39
786.00	55742.20
787.00	55490.98
788.00	55471.48
789.00	55584.60
790.00	55620.49
791.00	55650.92
792.00	55551.05
793.00	55431.69
794.00	55250.69
795.00	55018.97
796.00	55023.65
797.00	55024.43
798.00	55201.53
799.00	55270.19
800.00	55442.61
801.00	55466.80
802.00	55686.81
803.00	55743.76
804.00	55969.23
805.00	56051.93
806.00	56160.37
807.00	55872.49
808.00	55181.25
809.00	54014.10
810.00	52737.73
811.00	51378.66
812.00	50342.58
813.00	49721.56
814.00	50152.22
815.00	51410.65
816.00	52847.74
817.00	53720.76
818.00	53661.46
819.00	53094.27
820.00	52310.97
821.00	52172.88
822.00	52507.58
823.00	53198.04
824.00	53818.28
825.00	54250.50
826.00	54660.87
827.00	54947.98
828.00	55298.28
829.00	55647.80
830.00	55906.82
831.00	55952.07
832.00	55767.94
833.00	55429.35
834.00	55329.48
835.00	55349.77
836.00	55673.54
837.00	56001.22
838.00	56256.34
839.00	56314.07
840.00	56388.97
841.00	56481.81
842.00	56516.14
843.00	56275.06
844.00	55846.74
845.00	55458.99
846.00	55118.84
847.00	55109.47
848.00	55183.59
849.00	55601.77
850.00	55913.84
851.00	56324.99
852.00	56653.45
853.00	56927.29
854.00	57116.09
855.00	57191.77
856.00	57178.51
857.00	57008.43
858.00	56834.45
859.00	56705.72
860.00	56704.16
861.00	56747.85
862.00	56924.17
863.00	56935.87
864.00	56770.47
865.00	56221.23
866.00	55397.36
867.00	54316.81
868.00	53316.62
869.00	52731.49
870.00	52548.15
871.00	52903.91
872.00	53342.37
873.00	54022.68
874.00	54620.30
875.00	55223.38
876.00	55671.20
877.00	55888.09
878.00	56028.52
879.00	56196.26
880.00	56466.98
881.00	56817.28
882.00	57050.56
883.00	57154.32
884.00	57056.80
885.00	56642.52
886.00	56250.09
887.00	55945.05
888.00	55904.48
889.00	55917.74
890.00	56122.93
891.00	56424.85
892.00	56812.60
893.00	57004.53
894.00	57135.60
895.00	57082.55
896.00	56946.01
897.00	56757.21
898.00	56606.64
899.00	56495.85
900.00	56219.67
901.00	55727.38
902.00	55178.91
903.00	54624.20
904.00	54333.98
905.00	54240.35
906.00	54486.11
907.00	54880.10
908.00	55231.18
909.00	55674.32
910.00	55775.75
911.00	55746.88
912.00	55490.20
913.00	55399.70
914.00	55388.78
915.00	55421.55
916.00	55565.88
917.00	55767.16
918.00	56023.06
919.00	56122.15
920.00	56353.08
921.00	56525.50
922.00	56717.42
923.00	56626.14
924.00	56328.89
925.00	55929.44
926.00	55537.79
927.00	55161.75
928.00	54785.70
929.00	54535.26
930.00	54532.92
931.00	54706.12
932.00	55089.97
933.00	55335.73
934.00	55481.62
935.00	55419.98
936.00	55367.71
937.00	55489.42
938.00	55498.00
939.00	55576.02
940.00	55417.64
941.00	55247.57
942.00	55033.02
943.00	54774.00
944.00	54556.33
945.00	54291.85
946.00	54209.15
947.00	54016.44
948.00	53936.87
949.00	53665.36
950.00	53562.38
951.00	53414.93
952.00	53201.16
953.00	53240.17
954.00	53410.24
955.00	53829.98
956.00	54123.33
957.00	54322.27
958.00	54585.97
959.00	54649.17
960.00	54474.41
961.00	54259.08
962.00	54087.44
963.00	54167.80
964.00	54093.68
965.00	54095.24
966.00	54110.06
967.00	54159.22
968.00	54337.88
969.00	54466.61
970.00	54822.37
971.00	55128.98
972.00	55214.80
973.00	54971.38
974.00	54636.69
975.00	54603.14
976.00	54599.24
977.00	54650.73
978.00	54603.92
979.00	54678.82
980.00	54564.91
981.00	54710.02
982.00	54556.33
983.00	54538.38
984.00	54291.85
985.00	54295.75
986.00	54245.82
987.00	54053.11
988.00	54210.71
989.00	54074.96
990.00	54042.97
991.00	53638.84
992.00	53393.08
993.00	53173.07
994.00	53279.95
995.00	53545.22
996.00	53876.79
997.00	54049.99
998.00	54290.29
999.00	54458.80
1000.00	54528.24
1001.00	54432.28
1002.00	54291.07
1003.00	53999.28
1004.00	54074.18
1005.00	54125.67
1006.00	54294.97
1007.00	54053.89
1008.00	53896.30
1009.00	53680.19
1010.00	53690.33
1011.00	53552.24
1012.00	53668.48
1013.00	53500.75
1014.00	53547.56
1015.00	53477.34
1016.00	53640.40
1017.00	53908.00
1018.00	54095.24
1019.00	54266.10
1020.00	54130.35
1021.00	53941.55
1022.00	53570.18
1023.00	53182.43
1024.00	52976.47
1025.00	53073.99
1026.00	53310.38
1027.00	53564.72
1028.00	53695.79
1029.00	53645.86
1030.00	53614.65
1031.00	53736.36
1032.00	53904.88
1033.00	53977.43
1034.00	53837.00
1035.00	53801.11
1036.00	53797.99
1037.00	53846.36
1038.00	53853.39
1039.00	53659.12
1040.00	53475.78
1041.00	53226.12
1042.00	53148.10
1043.00	53080.23
1044.00	53146.54
1045.00	53091.93
1046.00	52891.43
1047.00	52532.54
1048.00	52288.35
1049.00	52161.18
1050.00	52168.98
1051.00	52307.07
1052.00	52566.09
1053.00	52711.98
1054.00	52757.24
1055.00	52697.94
1056.00	52436.58
1057.00	52066.00
1058.00	51494.91
1059.00	51015.88
1060.00	50730.33
1061.00	50678.84
1062.00	50926.94
1063.00	51070.49
1064.00	51075.95
1065.00	51022.90
1066.00	51035.38
1067.00	51156.31
1068.00	51231.21
1069.00	51317.03
1070.00	51551.86
1071.00	52051.95
1072.00	52409.28
1073.00	52612.90
1074.00	52426.44
1075.00	52134.65
1076.00	51710.24
1077.00	51372.42
1078.00	51260.07
1079.00	51207.80
1080.00	51235.11
1081.00	51239.79
1082.00	51309.22
1083.00	51393.48
1084.00	51498.81
1085.00	51725.06
1086.00	51757.05
1087.00	51788.25
1088.00	51455.12
1089.00	51468.38
1090.00	51192.20
1091.00	51135.24
1092.00	50850.48
1093.00	50888.71
1094.00	51071.27
1095.00	51229.65
1096.00	51334.19
1097.00	51196.10
1098.00	50975.31
1099.00	50571.96
1100.00	50254.42
1101.00	49913.48
1102.00	49642.76
1103.00	49432.89
1104.00	49405.59
1105.00	49556.16
1106.00	49543.68
1107.00	49792.56
1108.00	49950.93
1109.00	50318.40
1110.00	50573.52
1111.00	50598.48
1112.00	50662.46
1113.00	50431.52
1114.00	50371.45
1115.00	50090.58
1116.00	49819.86
1117.00	49490.63
1118.00	49177.00
1119.00	48782.23
1120.00	48634.77
1121.00	48478.74
1122.00	48652.72
1123.00	48699.53
1124.00	48868.83
1125.00	48783.01
1126.00	48729.95
1127.00	48590.30
1128.00	48582.50
1129.00	48381.21
1130.00	48130.78
1131.00	47597.13
1132.00	47164.14
1133.00	46650.00
1134.00	46379.28
1135.00	46235.72
1136.00	46637.51
1137.00	47104.84
1138.00	47570.61
1139.00	47769.55
1140.00	47995.03
1141.00	48244.68
1142.00	48464.69
1143.00	48555.97
1144.00	48386.67
1145.00	48234.54
1146.00	48166.66
1147.00	48086.31
1148.00	48124.53
1149.00	47943.53
1150.00	48036.37
1151.00	47958.36
1152.00	47913.11
1153.00	47782.82
1154.00	47516.78
1155.00	47413.79
1156.00	47193.78
1157.00	47150.09
1158.00	46916.04
1159.00	46770.93
1160.00	46409.70
1161.00	46258.35
1162.00	46042.24
1163.00	45968.12
1164.00	45993.87
1165.00	45880.74
1166.00	45888.54
1167.00	45954.08
1168.00	46341.05
1169.00	46521.27
1170.00	46502.54
1171.00	46329.34
1172.00	46153.02
1173.00	46117.14
1174.00	45885.42
1175.00	45794.92
1176.00	45390.79
1177.00	45158.30
1178.00	44716.72
1179.00	44452.23
1180.00	44336.77
1181.00	44480.32
1182.00	44652.74
1183.00	44772.11
1184.00	44758.84
1185.00	44944.53
1186.00	45194.96
1187.00	45462.57
1188.00	45658.39
1189.00	45669.31
1190.00	45805.06
1191.00	45839.39
1192.00	45777.76
1193.00	45558.53
1194.00	45365.82
1195.00	45454.76
1196.00	45653.71
1197.00	45688.04
1198.00	45610.80
1199.00	45555.41
1200.00	45620.16
1201.00	45709.10
1202.00	45746.55
1203.00	45919.75
1204.00	46043.02
1205.00	46237.28
1206.00	46134.30
1207.00	46210.76
1208.00	46202.96
1209.00	46301.26
1210.00	46186.57
1211.00	46072.67
1212.00	46082.03
1213.00	45975.92
1214.00	45885.42
1215.00	45619.38
