SpectraSuite Data File
++++++++++++++++++++++++++++++++++++
Date: Thu Nov 16 13:32:55 EST 2017
User: cheriyan
Dark Spectrum Present: No
Reference Spectrum Present: No
Number of Sampled Component Spectra: 1
Spectrometers: USB2+H05261
Integration Time (usec): 90000 (USB2+H05261)
Spectra Averaged: 1 (USB2+H05261)
Boxcar Smoothing: 1 (USB2+H05261)
Correct for Electrical Dark: No (USB2+H05261)
Strobe/Lamp Enabled: No (USB2+H05261)
Correct for Detector Non-linearity: No (USB2+H05261)
Correct for Stray Light: No (USB2+H05261)
Number of Pixels in Processed Spectrum: 2048
>>>>>Begin Processed Spectral Data<<<<<
0.00	353.42
1.00	353.42
2.00	330.80
3.00	310.51
4.00	291.01
5.00	275.40
6.00	265.26
7.00	268.38
8.00	246.54
9.00	259.02
10.00	258.24
11.00	291.01
12.00	275.40
13.00	245.76
14.00	233.27
15.00	251.22
16.00	249.66
17.00	253.56
18.00	231.71
19.00	256.68
20.00	265.26
21.00	287.11
22.00	312.07
23.00	751.31
24.00	2426.36
25.00	4183.32
26.00	5589.98
27.00	5649.27
28.00	5497.92
29.00	5285.71
30.00	5075.84
31.00	5035.27
32.00	5028.25
33.00	5147.62
34.00	5156.98
35.00	4999.38
36.00	4787.96
37.00	4562.48
38.00	4556.24
39.00	4622.56
40.00	4773.13
41.00	4778.59
42.00	4706.82
43.00	4659.23
44.00	4748.95
45.00	5017.33
46.00	5324.72
47.00	5614.16
48.00	5767.08
49.00	5746.02
50.00	5673.46
51.00	5584.52
52.00	5663.32
53.00	5776.44
54.00	5971.49
55.00	6193.06
56.00	6392.00
57.00	6663.51
58.00	6846.07
59.00	7144.88
60.00	7236.94
61.00	7304.81
62.00	7105.09
63.00	6927.99
64.00	6653.36
65.00	6415.41
66.00	6161.85
67.00	5951.98
68.00	5892.69
69.00	5900.49
70.00	6086.95
71.00	6311.64
72.00	6578.47
73.00	6768.05
74.00	6854.65
75.00	6828.90
76.00	6644.00
77.00	6389.66
78.00	6065.89
79.00	5756.16
80.00	5485.44
81.00	5231.10
82.00	5039.95
83.00	4839.45
84.00	4698.24
85.00	4564.04
86.00	4492.27
87.00	4404.89
88.00	4432.19
89.00	4491.49
90.00	4824.62
91.00	5167.12
92.00	5670.34
93.00	6005.03
94.00	6321.01
95.00	6491.87
96.00	6519.95
97.00	6461.44
98.00	6264.05
99.00	6161.07
100.00	6090.85
101.00	6132.20
102.00	6268.73
103.00	6412.29
104.00	6530.09
105.00	6487.18
106.00	6399.80
107.00	6315.55
108.00	6316.33
109.00	6377.18
110.00	6420.09
111.00	6461.44
112.00	6446.62
113.00	6464.56
114.00	6486.40
115.00	6673.65
116.00	6959.19
117.00	7353.18
118.00	7737.81
119.00	8102.93
120.00	8348.69
121.00	8402.52
122.00	8347.13
123.00	8332.31
124.00	8390.04
125.00	8584.30
126.00	8780.13
127.00	9137.45
128.00	9275.54
129.00	9398.03
130.00	9179.58
131.00	8956.45
132.00	8571.82
133.00	8236.35
134.00	7682.42
135.00	7008.34
136.00	6211.00
137.00	5471.39
138.00	4855.05
139.00	4585.11
140.00	4800.44
141.00	5380.11
142.00	6146.25
143.00	6926.43
144.00	7655.11
145.00	8327.63
146.00	8879.99
147.00	9350.44
148.00	9611.80
149.00	9844.29
150.00	9926.21
151.00	9794.36
152.00	9282.56
153.00	8512.53
154.00	7539.65
155.00	6670.53
156.00	5969.15
157.00	5789.71
158.00	6048.72
159.00	6831.24
160.00	7886.83
161.00	9069.58
162.00	10061.96
163.00	10884.27
164.00	11541.18
165.00	12066.24
166.00	12450.87
167.00	12762.16
168.00	13105.44
169.00	13353.54
170.00	13565.74
171.00	13626.60
172.00	13685.11
173.00	13755.33
174.00	13796.68
175.00	13976.90
176.00	14064.28
177.00	14228.90
178.00	14441.89
179.00	14602.60
180.00	14847.58
181.00	14966.95
182.00	15069.93
183.00	15184.62
184.00	15236.11
185.00	15325.83
186.00	15225.97
187.00	15245.47
188.00	15041.06
189.00	14817.15
190.00	14548.77
191.00	14739.13
192.00	15090.21
193.00	15485.76
194.00	15451.44
195.00	15294.62
196.00	14970.85
197.00	14814.81
198.00	14862.40
199.00	14938.86
200.00	15052.77
201.00	15083.19
202.00	15089.43
203.00	14965.39
204.00	14861.62
205.00	14726.65
206.00	14636.93
207.00	14666.58
208.00	14824.95
209.00	15083.19
210.00	15279.02
211.00	15239.23
212.00	15190.08
213.00	15234.55
214.00	15629.32
215.00	15907.84
216.00	16193.39
217.00	16490.63
218.00	16851.86
219.00	17085.91
220.00	17124.92
221.00	17110.10
222.00	16737.95
223.00	16083.38
224.00	15464.70
225.00	15063.69
226.00	15013.76
227.00	15163.55
228.00	15474.84
229.00	15928.91
230.00	16534.32
231.00	17104.64
232.00	17689.77
233.00	18029.15
234.00	18135.25
235.00	18221.07
236.00	18278.02
237.00	18391.93
238.00	18303.77
239.00	18196.88
240.00	18075.18
241.00	17922.26
242.00	17814.60
243.00	17963.61
244.00	18283.48
245.00	18494.91
246.00	18664.99
247.00	18658.75
248.00	18540.16
249.00	18494.13
250.00	18643.15
251.00	18862.38
252.00	18953.66
253.00	18915.43
254.00	19027.78
255.00	19194.73
256.00	19499.00
257.00	19983.49
258.00	20272.16
259.00	20324.43
260.00	20028.74
261.00	19769.73
262.00	19412.40
263.00	19153.38
264.00	18931.03
265.00	19126.08
266.00	19236.08
267.00	19473.26
268.00	19443.61
269.00	19418.64
270.00	19369.49
271.00	19454.53
272.00	19764.26
273.00	20083.36
274.00	20134.07
275.00	19951.51
276.00	19586.38
277.00	19310.20
278.00	19202.54
279.00	19418.64
280.00	20007.68
281.00	20599.84
282.00	21157.66
283.00	21280.93
284.00	21435.41
285.00	21281.71
286.00	21460.37
287.00	21224.76
288.00	21004.75
289.00	20376.70
290.00	19807.95
291.00	19251.69
292.00	19097.99
293.00	19364.03
294.00	19923.42
295.00	20250.32
296.00	20443.80
297.00	20327.55
298.00	20379.04
299.00	20308.83
300.00	20368.90
301.00	20086.48
302.00	20076.34
303.00	20091.16
304.00	20134.85
305.00	20116.12
306.00	19882.07
307.00	19822.78
308.00	19557.52
309.00	19580.92
310.00	19798.59
311.00	20187.12
312.00	20252.66
313.00	19990.52
314.00	19314.88
315.00	18716.48
316.00	18427.04
317.00	18591.66
318.00	19016.85
319.00	19352.33
320.00	19779.09
321.00	19846.18
322.00	19763.48
323.00	19297.72
324.00	19108.91
325.00	18860.04
326.00	18830.39
327.00	18590.10
328.00	18200.79
329.00	17482.24
330.00	16677.10
331.00	15733.08
332.00	14955.24
333.00	14377.13
334.00	14287.41
335.00	14528.49
336.00	15186.18
337.00	16402.47
338.00	18148.51
339.00	20021.72
340.00	21470.51
341.00	22041.60
342.00	21691.30
343.00	21008.65
344.00	20539.76
345.00	20645.87
346.00	21099.15
347.00	21713.93
348.00	22141.47
349.00	22019.76
350.00	21290.29
351.00	20215.99
352.00	19474.04
353.00	19409.28
354.00	20047.47
355.00	20766.01
356.00	21359.73
357.00	21759.18
358.00	22022.88
359.00	22214.80
360.00	22358.36
361.00	22719.58
362.00	23047.26
363.00	23466.99
364.00	23811.05
365.00	23903.11
366.00	23832.11
367.00	23553.59
368.00	23427.98
369.00	23064.42
370.00	22903.70
371.00	22547.94
372.00	22279.56
373.00	21827.84
374.00	21292.63
375.00	20880.70
376.00	20644.31
377.00	20819.07
378.00	21202.91
379.00	21765.42
380.00	22356.80
381.00	23100.31
382.00	23724.45
383.00	24064.61
384.00	23992.83
385.00	23687.78
386.00	23413.16
387.00	23454.51
388.00	23803.25
389.00	24525.69
390.00	25116.29
391.00	25517.30
392.00	25759.16
393.00	26001.01
394.00	26439.47
395.00	26712.53
396.00	27077.66
397.00	27248.52
398.00	27464.63
399.00	27555.13
400.00	27309.37
401.00	27294.55
402.00	27176.74
403.00	27484.13
404.00	27570.73
405.00	27818.05
406.00	27974.86
407.00	27814.93
408.00	27454.48
409.00	27367.10
410.00	27589.45
411.00	27835.99
412.00	27406.89
413.00	26774.17
414.00	26036.12
415.00	25480.63
416.00	25333.18
417.00	25515.74
418.00	26123.50
419.00	26655.58
420.00	27039.43
421.00	27415.47
422.00	27838.33
423.00	28194.09
424.00	28365.73
425.00	28452.33
426.00	28350.13
427.00	28212.82
428.00	27964.72
429.00	27887.48
430.00	27904.65
431.00	28095.01
432.00	28039.62
433.00	28080.19
434.00	27987.35
435.00	28274.45
436.00	28522.55
437.00	28847.88
438.00	29080.38
439.00	29478.27
440.00	29940.13
441.00	30405.90
442.00	30497.18
443.00	30464.41
444.00	30414.48
445.00	30337.24
446.00	30092.27
447.00	29933.11
448.00	29740.41
449.00	29458.76
450.00	29151.37
451.00	28776.89
452.00	28204.24
453.00	27677.62
454.00	27240.72
455.00	27399.87
456.00	27589.45
457.00	28054.44
458.00	28586.52
459.00	28883.77
460.00	29245.77
461.00	29279.32
462.00	29307.41
463.00	29071.01
464.00	28897.81
465.00	28840.08
466.00	28881.43
467.00	29125.63
468.00	29344.86
469.00	29752.89
470.00	30113.33
471.00	30521.37
472.00	30659.46
473.00	30718.75
474.00	30775.70
475.00	30757.76
476.00	30964.51
477.00	31218.85
478.00	31579.29
479.00	31637.02
480.00	31282.04
481.00	30990.25
482.00	30465.19
483.00	30179.65
484.00	30091.49
485.00	30207.73
486.00	30496.40
487.00	30646.19
488.00	30707.05
489.00	30710.95
490.00	30461.29
491.00	30345.83
492.00	30320.08
493.00	30418.38
494.00	30653.22
495.00	30738.26
496.00	31177.50
497.00	31573.83
498.00	31921.79
499.00	31953.77
500.00	31796.18
501.00	31819.58
502.00	31902.28
503.00	32021.65
504.00	32151.94
505.00	32037.25
506.00	32187.83
507.00	32404.72
508.00	32594.30
509.00	32667.64
510.00	32522.52
511.00	32352.45
512.00	32130.87
513.00	32156.62
514.00	31955.33
515.00	31935.83
516.00	31646.38
517.00	31493.47
518.00	31152.53
519.00	30792.09
520.00	30953.58
521.00	31068.27
522.00	31324.17
523.00	31676.03
524.00	32114.49
525.00	32375.85
526.00	31983.42
527.00	31623.76
528.00	30934.08
529.00	30471.43
530.00	30198.37
531.00	30341.92
532.00	30779.60
533.00	30942.66
534.00	31104.16
535.00	31282.82
536.00	31062.81
537.00	30954.36
538.00	30954.36
539.00	31205.58
540.00	31406.87
541.00	31407.65
542.00	31446.66
543.00	31660.43
544.00	31598.79
545.00	31590.21
546.00	31182.18
547.00	30945.00
548.00	30654.78
549.00	30731.23
550.00	30693.79
551.00	30838.12
552.00	30989.47
553.00	31189.20
554.00	31384.24
555.00	31721.28
556.00	32264.28
557.00	32911.83
558.00	33303.48
559.00	33689.67
560.00	33827.76
561.00	33869.11
562.00	33275.40
563.00	32814.31
564.00	32344.64
565.00	32712.89
566.00	32988.29
567.00	33184.90
568.00	33322.21
569.00	33264.47
570.00	33644.42
571.00	33977.56
572.00	34411.34
573.00	34501.84
574.00	34291.19
575.00	34326.30
576.00	34489.35
577.00	34675.82
578.00	34555.67
579.00	34325.52
580.00	34148.42
581.00	34147.64
582.00	34197.57
583.00	34073.52
584.00	34256.86
585.00	34575.17
586.00	35307.76
587.00	35663.52
588.00	35977.93
589.00	36364.90
590.00	36790.88
591.00	37208.28
592.00	37491.48
593.00	37695.89
594.00	37565.60
595.00	37349.49
596.00	37340.13
597.00	37602.27
598.00	38098.46
599.00	38553.30
600.00	39249.22
601.00	39317.10
602.00	39416.96
603.00	39254.68
604.00	39380.29
605.00	39801.59
606.00	39842.16
607.00	40091.04
608.00	40087.14
609.00	40673.83
610.00	41035.05
611.00	41352.58
612.00	41702.89
613.00	42031.34
614.00	42213.12
615.00	42001.69
616.00	41876.08
617.00	42046.16
618.00	42350.43
619.00	42407.39
620.00	42547.82
621.00	42590.73
622.00	42995.64
623.00	43236.72
624.00	43212.53
625.00	43010.46
626.00	42885.64
627.00	43018.27
628.00	43177.42
629.00	43462.97
630.00	43892.07
631.00	43835.11
632.00	42930.11
633.00	42019.64
634.00	40836.11
635.00	39186.03
636.00	37417.36
637.00	36701.16
638.00	37271.47
639.00	38323.15
640.00	39435.69
641.00	40524.82
642.00	41351.02
643.00	42231.85
644.00	43210.19
645.00	44069.95
646.00	44890.69
647.00	45493.77
648.00	46145.22
649.00	46315.30
650.00	46211.54
651.00	45957.98
652.00	45710.66
653.00	45740.31
654.00	46214.66
655.00	47093.14
656.00	48079.28
657.00	48857.12
658.00	49276.08
659.00	49609.99
660.00	49744.97
661.00	49875.26
662.00	49799.58
663.00	49602.97
664.00	49450.06
665.00	49262.04
666.00	49426.65
667.00	49234.73
668.00	48871.17
669.00	48150.28
670.00	47747.71
671.00	47739.91
672.00	48322.70
673.00	49290.90
674.00	50192.79
675.00	50939.42
676.00	51036.94
677.00	51058.79
678.00	50627.35
679.00	50529.83
680.00	50511.10
681.00	50849.70
682.00	51420.01
683.00	52034.01
684.00	52698.72
685.00	53084.13
686.00	53306.48
687.00	53272.15
688.00	53069.31
689.00	52717.45
690.00	52402.25
691.00	52267.28
692.00	52342.96
693.00	52648.79
694.00	53102.07
695.00	53509.33
696.00	53609.97
697.00	53642.74
698.00	53785.51
699.00	53898.64
700.00	54043.75
701.00	54061.69
702.00	54131.13
703.00	53783.95
704.00	53242.51
705.00	52571.55
706.00	52341.40
707.00	52458.43
708.00	53031.86
709.00	53553.80
710.00	54043.75
711.00	54323.05
712.00	54496.25
713.00	54512.64
714.00	54344.12
715.00	53958.71
716.00	53567.06
717.00	53222.22
718.00	52991.29
719.00	52940.58
720.00	52726.81
721.00	52704.96
722.00	52562.97
723.00	52687.80
724.00	52594.18
725.00	52439.70
726.00	52500.56
727.00	52754.11
728.00	53055.26
729.00	53267.47
730.00	53521.03
731.00	53819.84
732.00	54058.57
733.00	54196.66
734.00	54124.89
735.00	53952.47
736.00	53467.98
737.00	52988.95
738.00	52604.32
739.00	52697.94
740.00	53109.10
741.00	53611.53
742.00	54007.86
743.00	54212.27
744.00	54345.68
745.00	54653.85
746.00	55017.41
747.00	55397.36
748.00	55580.70
749.00	55803.83
750.00	55821.00
751.00	55628.29
752.00	55366.15
753.00	55102.45
754.00	54979.96
755.00	54838.75
756.00	54816.91
757.00	54703.78
758.00	54561.01
759.00	54217.73
760.00	53885.37
761.00	53846.36
762.00	53962.61
763.00	54301.99
764.00	54567.25
765.00	54947.20
766.00	55485.52
767.00	55770.28
768.00	55852.20
769.00	55768.72
770.00	55604.11
771.00	55436.37
772.00	55206.22
773.00	55219.48
774.00	55309.98
775.00	55313.88
776.00	55250.69
777.00	55305.30
778.00	55390.34
779.00	55732.06
780.00	55957.53
781.00	56368.68
782.00	56406.13
783.00	56412.37
784.00	56052.71
785.00	55725.81
786.00	55319.34
787.00	55138.34
788.00	55027.56
789.00	55100.11
790.00	55206.22
791.00	55267.07
792.00	55222.60
793.00	55010.39
794.00	54913.65
795.00	54690.52
796.00	54681.16
797.00	54622.64
798.00	54811.45
799.00	54932.37
800.00	55134.44
801.00	55250.69
802.00	55340.41
803.00	55314.66
804.00	55441.83
805.00	55700.07
806.00	55848.30
807.00	55613.47
808.00	54810.67
809.00	53658.34
810.00	52254.80
811.00	50882.47
812.00	49762.91
813.00	49195.72
814.00	49675.53
815.00	50877.00
816.00	52401.47
817.00	53233.14
818.00	53242.51
819.00	52538.01
820.00	51830.38
821.00	51741.44
822.00	52007.48
823.00	52665.95
824.00	53180.09
825.00	53884.59
826.00	54213.05
827.00	54598.46
828.00	54924.57
829.00	55341.97
830.00	55576.02
831.00	55555.74
832.00	55427.79
833.00	55155.50
834.00	55104.01
835.00	55157.84
836.00	55499.56
837.00	55708.65
838.00	55904.48
839.00	55975.47
840.00	56125.27
841.00	56193.14
842.00	56222.01
843.00	55963.77
844.00	55570.56
845.00	55050.96
846.00	54758.39
847.00	54639.81
848.00	54692.08
849.00	55018.19
850.00	55391.12
851.00	55905.26
852.00	56246.19
853.00	56598.05
854.00	56747.85
855.00	56742.39
856.00	56679.97
857.00	56609.76
858.00	56555.92
859.00	56334.35
860.00	56183.78
861.00	56125.27
862.00	56346.06
863.00	56462.30
864.00	56270.38
865.00	55666.52
866.00	54812.23
867.00	53776.15
868.00	52849.30
869.00	52286.79
870.00	52195.51
871.00	52445.94
872.00	52882.06
873.00	53513.23
874.00	54213.83
875.00	54785.70
876.00	55121.96
877.00	55316.22
878.00	55444.95
879.00	55764.04
880.00	56059.73
881.00	56448.26
882.00	56712.74
883.00	56838.35
884.00	56698.70
885.00	56309.39
886.00	55853.76
887.00	55576.02
888.00	55458.99
889.00	55533.89
890.00	55657.16
891.00	55903.70
892.00	56237.61
893.00	56413.93
894.00	56615.22
895.00	56678.41
896.00	56722.10
897.00	56517.70
898.00	56257.90
899.00	56012.14
900.00	55746.88
901.00	55380.20
902.00	54893.36
903.00	54318.37
904.00	53876.01
905.00	53827.64
906.00	53989.14
907.00	54474.41
908.00	54871.52
909.00	55366.15
910.00	55455.87
911.00	55352.11
912.00	55087.63
913.00	55019.75
914.00	55001.03
915.00	55146.14
916.00	55213.24
917.00	55342.75
918.00	55570.56
919.00	55771.07
920.00	56059.73
921.00	56190.80
922.00	56319.53
923.00	56236.83
924.00	56008.24
925.00	55669.64
926.00	55344.31
927.00	54887.90
928.00	54341.00
929.00	54042.97
930.00	53969.63
931.00	54297.31
932.00	54628.10
933.00	55073.59
934.00	55240.54
935.00	55198.41
936.00	55182.81
937.00	55231.18
938.00	55178.13
939.00	55104.01
940.00	54966.70
941.00	54804.42
942.00	54539.16
943.00	54287.17
944.00	54074.96
945.00	53881.47
946.00	53645.08
947.00	53432.87
948.00	53325.21
949.00	53169.17
950.00	53076.33
951.00	52893.77
952.00	52787.66
953.00	52779.08
954.00	53043.56
955.00	53421.17
956.00	53805.80
957.00	53962.61
958.00	54168.58
959.00	54314.47
960.00	54206.81
961.00	54002.40
962.00	53804.23
963.00	53818.28
964.00	53790.97
965.00	53689.55
966.00	53648.20
967.00	53752.74
968.00	53968.07
969.00	54136.59
970.00	54448.66
971.00	54748.25
972.00	54923.01
973.00	54763.07
974.00	54587.53
975.00	54435.40
976.00	54399.51
977.00	54220.85
978.00	54113.19
979.00	54005.52
980.00	53948.57
981.00	54144.39
982.00	54103.82
983.00	54126.45
984.00	53853.39
985.00	53810.48
986.00	53800.33
987.00	53734.80
988.00	53854.95
989.00	53560.82
990.00	53510.11
991.00	53068.53
992.00	53013.91
993.00	52697.16
994.00	52818.09
995.00	52925.75
996.00	53321.30
997.00	53590.47
998.00	53848.71
999.00	53958.71
1000.00	53941.55
1001.00	53884.59
1002.00	53787.07
1003.00	53655.22
1004.00	53717.64
1005.00	53756.64
1006.00	53846.36
1007.00	53624.01
1008.00	53525.71
1009.00	53336.91
1010.00	53343.93
1011.00	53081.01
1012.00	53100.51
1013.00	52959.30
1014.00	53153.57
1015.00	53123.92
1016.00	53333.79
1017.00	53521.81
1018.00	53704.37
1019.00	53808.14
1020.00	53704.37
1021.00	53507.77
1022.00	53076.33
1023.00	52743.97
1024.00	52604.32
1025.00	52715.89
1026.00	52901.57
1027.00	52958.52
1028.00	53024.06
1029.00	53016.25
1030.00	53184.77
1031.00	53435.21
1032.00	53675.51
1033.00	53784.73
1034.00	53707.49
1035.00	53655.22
1036.00	53653.66
1037.00	53531.17
1038.00	53414.15
1039.00	53166.83
1040.00	53065.41
1041.00	52955.40
1042.00	52871.92
1043.00	52761.92
1044.00	52558.29
1045.00	52477.15
1046.00	52301.61
1047.00	52108.91
1048.00	51763.29
1049.00	51643.14
1050.00	51663.42
1051.00	51855.35
1052.00	52076.92
1053.00	52310.19
1054.00	52274.30
1055.00	52165.08
1056.00	51816.34
1057.00	51673.57
1058.00	51270.22
1059.00	50856.72
1060.00	50487.70
1061.00	50351.94
1062.00	50534.51
1063.00	50656.21
1064.00	50692.88
1065.00	50697.56
1066.00	50644.51
1067.00	50652.31
1068.00	50683.52
1069.00	50962.82
1070.00	51361.50
1071.00	51857.69
1072.00	52136.99
1073.00	52201.75
1074.00	51923.22
1075.00	51544.06
1076.00	51189.86
1077.00	50949.56
1078.00	50840.34
1079.00	50859.06
1080.00	50818.49
1081.00	50891.83
1082.00	51011.20
1083.00	51186.74
1084.00	51314.69
1085.00	51324.83
1086.00	51281.92
1087.00	51254.61
1088.00	51105.60
1089.00	50877.79
1090.00	50610.96
1091.00	50420.60
1092.00	50470.53
1093.00	50450.25
1094.00	50506.42
1095.00	50552.45
1096.00	50539.97
1097.00	50579.76
1098.00	50332.44
1099.00	50110.09
1100.00	49733.26
1101.00	49424.31
1102.00	49103.66
1103.00	48951.52
1104.00	48846.20
1105.00	49109.90
1106.00	49075.57
1107.00	49266.72
1108.00	49339.27
1109.00	49605.31
1110.00	49825.32
1111.00	49854.19
1112.00	50051.58
1113.00	50103.07
1114.00	50110.09
1115.00	49746.53
1116.00	49341.61
1117.00	48971.81
1118.00	48762.72
1119.00	48386.68
1120.00	48033.25
1121.00	47892.82
1122.00	48099.57
1123.00	48339.08
1124.00	48402.28
1125.00	48306.32
1126.00	48257.95
1127.00	48243.12
1128.00	48137.80
1129.00	48006.73
1130.00	47590.11
1131.00	47115.76
1132.00	46596.17
1133.00	46220.12
1134.00	45995.43
1135.00	45929.11
1136.00	46146.00
1137.00	46515.81
1138.00	46847.38
1139.00	47365.42
1140.00	47807.78
1141.00	48083.19
1142.00	48058.22
1143.00	48025.45
1144.00	48034.03
1145.00	47965.38
1146.00	47900.62
1147.00	47847.57
1148.00	47787.50
1149.00	47491.03
1150.00	47289.74
1151.00	47158.67
1152.00	47353.72
1153.00	47288.18
1154.00	47137.61
1155.00	46842.70
1156.00	46595.38
1157.00	46410.48
1158.00	46200.61
1159.00	45975.92
1160.00	45676.33
1161.00	45572.57
1162.00	45522.64
1163.00	45556.97
1164.00	45453.98
1165.00	45430.58
1166.00	45253.48
1167.00	45379.87
1168.00	45565.55
1169.00	45833.93
1170.00	45783.22
1171.00	45719.24
1172.00	45552.29
1173.00	45517.18
1174.00	45393.91
1175.00	45413.41
1176.00	45232.41
1177.00	44933.60
1178.00	44559.12
1179.00	44170.59
1180.00	44018.46
1181.00	44069.17
1182.00	44189.31
1183.00	44169.03
1184.00	44389.04
1185.00	44513.09
1186.00	44769.77
1187.00	44883.67
1188.00	45063.11
1189.00	45167.66
1190.00	45005.38
1191.00	45130.99
1192.00	44998.36
1193.00	45041.27
1194.00	44848.57
1195.00	45020.98
1196.00	45134.11
1197.00	45108.36
1198.00	45016.30
1199.00	44970.27
1200.00	45099.00
1201.00	45290.93
1202.00	45386.89
1203.00	45528.88
1204.00	45570.23
1205.00	45716.12
1206.00	45663.07
1207.00	45683.36
1208.00	45599.10
1209.00	45538.24
1210.00	45403.27
1211.00	45308.09
1212.00	45388.45
1213.00	45450.08
1214.00	45336.18
1215.00	45235.53
