SpectraSuite Data File
++++++++++++++++++++++++++++++++++++
Date: Thu Nov 16 13:32:53 EST 2017
User: cheriyan
Dark Spectrum Present: No
Reference Spectrum Present: No
Number of Sampled Component Spectra: 1
Spectrometers: USB2+H05261
Integration Time (usec): 90000 (USB2+H05261)
Spectra Averaged: 1 (USB2+H05261)
Boxcar Smoothing: 1 (USB2+H05261)
Correct for Electrical Dark: No (USB2+H05261)
Strobe/Lamp Enabled: No (USB2+H05261)
Correct for Detector Non-linearity: No (USB2+H05261)
Correct for Stray Light: No (USB2+H05261)
Number of Pixels in Processed Spectrum: 2048
>>>>>Begin Processed Spectral Data<<<<<
0.00	304.27
1.00	304.27
2.00	294.13
3.00	280.86
4.00	274.62
5.00	270.72
6.00	262.14
7.00	243.42
8.00	238.73
9.00	243.42
10.00	257.46
11.00	257.46
12.00	269.94
13.00	261.36
14.00	263.70
15.00	230.93
16.00	240.30
17.00	252.78
18.00	286.33
19.00	289.45
20.00	312.07
21.00	329.24
22.00	360.44
23.00	791.88
24.00	2376.42
25.00	4152.11
26.00	5522.10
27.00	5640.69
28.00	5500.26
29.00	5257.62
30.00	5103.93
31.00	5050.88
32.00	5133.58
33.00	5230.32
34.00	5206.91
35.00	5031.37
36.00	4785.62
37.00	4605.39
38.00	4567.95
39.00	4657.67
40.00	4813.70
41.00	4904.98
42.00	4876.90
43.00	4836.33
44.00	4870.65
45.00	5065.70
46.00	5322.38
47.00	5669.56
48.00	5878.65
49.00	5895.03
50.00	5778.78
51.00	5732.75
52.00	5778.00
53.00	5790.49
54.00	5895.81
55.00	6074.47
56.00	6405.27
57.00	6709.54
58.00	6953.73
59.00	7165.16
60.00	7296.23
61.00	7394.53
62.00	7261.12
63.00	6990.40
64.00	6673.65
65.00	6331.15
66.00	6127.52
67.00	5950.42
68.00	5932.48
69.00	5877.09
70.00	6045.60
71.00	6269.52
72.00	6619.04
73.00	6821.88
74.00	6962.31
75.00	6963.09
76.00	6832.80
77.00	6548.04
78.00	6162.63
79.00	5825.59
80.00	5541.61
81.00	5313.80
82.00	5095.35
83.00	4929.17
84.00	4768.45
85.00	4588.23
86.00	4495.39
87.00	4411.13
88.00	4448.58
89.00	4521.13
90.00	4786.40
91.00	5156.20
92.00	5625.87
93.00	6044.04
94.00	6416.19
95.00	6571.44
96.00	6591.73
97.00	6497.33
98.00	6343.63
99.00	6219.58
100.00	6124.40
101.00	6229.73
102.00	6379.52
103.00	6587.05
104.00	6592.51
105.00	6612.01
106.00	6480.94
107.00	6527.75
108.00	6515.27
109.00	6611.23
110.00	6580.03
111.00	6611.23
112.00	6562.08
113.00	6599.53
114.00	6582.37
115.00	6718.12
116.00	7022.39
117.00	7453.05
118.00	7882.92
119.00	8224.64
120.00	8427.49
121.00	8498.49
122.00	8389.26
123.00	8431.39
124.00	8521.11
125.00	8763.75
126.00	8996.24
127.00	9273.98
128.00	9461.23
129.00	9472.15
130.00	9375.41
131.00	9024.33
132.00	8648.28
133.00	8162.23
134.00	7673.06
135.00	7017.71
136.00	6226.61
137.00	5456.57
138.00	4817.60
139.00	4578.87
140.00	4768.45
141.00	5388.69
142.00	6168.87
143.00	6944.37
144.00	7662.91
145.00	8336.21
146.00	9001.70
147.00	9529.10
148.00	9785.00
149.00	9961.32
150.00	9922.31
151.00	9725.71
152.00	9214.69
153.00	8450.89
154.00	7624.69
155.00	6747.76
156.00	6093.97
157.00	5778.00
158.00	6069.01
159.00	6794.58
160.00	7884.48
161.00	9011.84
162.00	10225.02
163.00	11091.02
164.00	11793.96
165.00	12258.17
166.00	12674.00
167.00	12991.53
168.00	13247.43
169.00	13422.97
170.00	13548.58
171.00	13620.36
172.00	13770.15
173.00	13866.11
174.00	13967.54
175.00	14061.94
176.00	14167.26
177.00	14371.67
178.00	14601.04
179.00	14885.03
180.00	14951.34
181.00	15184.62
182.00	15296.96
183.00	15481.08
184.00	15499.03
185.00	15496.69
186.00	15427.25
187.00	15339.09
188.00	15236.89
189.00	15055.11
190.00	14926.38
191.00	14910.77
192.00	15212.70
193.00	15454.56
194.00	15634.78
195.00	15395.26
196.00	15093.33
197.00	14871.76
198.00	15012.98
199.00	15204.12
200.00	15422.57
201.00	15434.27
202.00	15316.47
203.00	15176.81
204.00	15047.30
205.00	14969.29
206.00	14783.60
207.00	14839.78
208.00	15030.92
209.00	15250.93
210.00	15368.74
211.00	15303.98
212.00	15300.86
213.00	15417.89
214.00	15724.50
215.00	16079.48
216.00	16395.45
217.00	16709.86
218.00	17033.64
219.00	17279.40
220.00	17393.30
221.00	17286.42
222.00	16920.51
223.00	16347.08
224.00	15713.58
225.00	15128.44
226.00	14891.27
227.00	15037.16
228.00	15510.73
229.00	16076.36
230.00	16695.04
231.00	17330.11
232.00	17946.45
233.00	18268.66
234.00	18345.90
235.00	18349.02
236.00	18438.74
237.00	18577.61
238.00	18549.53
239.00	18349.02
240.00	18145.39
241.00	18009.64
242.00	18046.31
243.00	18173.48
244.00	18419.24
245.00	18633.00
246.00	18889.68
247.00	18957.56
248.00	18986.43
249.00	18880.32
250.00	19007.49
251.00	19073.03
252.00	19197.85
253.00	19051.96
254.00	19145.58
255.00	19173.67
256.00	19541.91
257.00	19922.64
258.00	20330.67
259.00	20481.25
260.00	20370.46
261.00	20149.67
262.00	19802.49
263.00	19484.96
264.00	19263.39
265.00	19281.33
266.00	19423.33
267.00	19610.57
268.00	19619.93
269.00	19607.45
270.00	19580.14
271.00	19710.43
272.00	20071.65
273.00	20276.84
274.00	20241.73
275.00	20036.55
276.00	19861.01
277.00	19669.08
278.00	19544.25
279.00	19751.00
280.00	20355.64
281.00	20956.38
282.00	21416.68
283.00	21715.49
284.00	21777.12
285.00	21784.93
286.00	21706.13
287.00	21473.64
288.00	21222.42
289.00	20670.05
290.00	20151.23
291.00	19543.47
292.00	19298.50
293.00	19546.59
294.00	19987.39
295.00	20453.16
296.00	20559.27
297.00	20453.16
298.00	20404.79
299.00	20465.64
300.00	20684.09
301.00	20471.89
302.00	20379.82
303.00	20257.34
304.00	20325.21
305.00	20255.78
306.00	20070.87
307.00	19999.10
308.00	19843.06
309.00	19829.80
310.00	19975.69
311.00	20177.76
312.00	20201.94
313.00	20064.63
314.00	19620.71
315.00	19174.45
316.00	18815.57
317.00	18845.21
318.00	19137.78
319.00	19441.27
320.00	19826.68
321.00	19932.00
322.00	19826.68
323.00	19545.81
324.00	19344.53
325.00	19196.29
326.00	19019.19
327.00	18792.16
328.00	18200.01
329.00	17492.38
330.00	16669.30
331.00	15966.35
332.00	15307.88
333.00	14732.11
334.00	14510.54
335.00	14700.12
336.00	15403.85
337.00	16586.60
338.00	18316.25
339.00	20191.80
340.00	21687.40
341.00	22285.02
342.00	21933.16
343.00	21275.47
344.00	20620.12
345.00	20716.86
346.00	21383.13
347.00	22125.86
348.00	22574.47
349.00	22274.10
350.00	21498.60
351.00	20443.80
352.00	19715.11
353.00	19772.85
354.00	20192.58
355.00	20939.21
356.00	21537.61
357.00	22175.80
358.00	22339.63
359.00	22500.35
360.00	22643.90
361.00	23174.42
362.00	23518.48
363.00	23846.94
364.00	23949.92
365.00	24092.69
366.00	24026.38
367.00	23974.11
368.00	23746.30
369.00	23420.96
370.00	23229.82
371.00	22931.79
372.00	22799.94
373.00	22269.42
374.00	21678.04
375.00	21164.68
376.00	20922.05
377.00	21127.24
378.00	21576.62
379.00	22092.32
380.00	22711.78
381.00	23235.28
382.00	23900.77
383.00	24185.54
384.00	24188.66
385.00	23795.45
386.00	23555.15
387.00	23734.59
388.00	24127.02
389.00	24884.58
390.00	25260.62
391.00	25615.60
392.00	25816.11
393.00	26231.16
394.00	26728.92
395.00	27032.41
396.00	27176.74
397.00	27339.80
398.00	27588.67
399.00	27825.85
400.00	27764.21
401.00	27634.71
402.00	27571.51
403.00	27672.15
404.00	27966.28
405.00	28077.85
406.00	28317.36
407.00	28105.93
408.00	27824.29
409.00	27733.79
410.00	27896.07
411.00	28084.09
412.00	27515.34
413.00	26867.79
414.00	26258.47
415.00	25974.49
416.00	25777.88
417.00	25823.91
418.00	26237.41
419.00	26725.80
420.00	27327.31
421.00	27761.09
422.00	28220.62
423.00	28474.96
424.00	28684.83
425.00	28754.26
426.00	28722.27
427.00	28500.70
428.00	28332.18
429.00	28310.34
430.00	28444.53
431.00	28449.21
432.00	28496.02
433.00	28427.37
434.00	28525.67
435.00	28638.80
436.00	28791.71
437.00	29123.29
438.00	29412.73
439.00	29759.91
440.00	30192.13
441.00	30599.38
442.00	30895.07
443.00	30814.71
444.00	30598.60
445.00	30452.71
446.00	30212.42
447.00	30051.70
448.00	29887.08
449.00	29656.15
450.00	29326.91
451.00	29067.89
452.00	28571.70
453.00	28029.48
454.00	27522.36
455.00	27521.58
456.00	27903.09
457.00	28375.09
458.00	28949.31
459.00	29326.13
460.00	29682.67
461.00	29781.76
462.00	29718.56
463.00	29356.56
464.00	29239.53
465.00	29153.71
466.00	29361.24
467.00	29559.41
468.00	29817.64
469.00	30166.38
470.00	30620.45
471.00	30957.49
472.00	31115.08
473.00	30899.75
474.00	31086.22
475.00	31147.07
476.00	31491.91
477.00	31678.37
478.00	31929.59
479.00	32001.36
480.00	31597.23
481.00	31317.93
482.00	30734.35
483.00	30380.93
484.00	30252.20
485.00	30533.07
486.00	31041.74
487.00	31071.39
488.00	30947.34
489.00	30859.96
490.00	30788.97
491.00	30849.04
492.00	30735.13
493.00	30834.22
494.00	30886.49
495.00	31023.80
496.00	31346.79
497.00	31742.35
498.00	32070.02
499.00	32180.03
500.00	32084.84
501.00	32137.12
502.00	32182.37
503.00	32247.12
504.00	32328.26
505.00	32432.02
506.00	32559.97
507.00	32776.08
508.00	32753.46
509.00	32841.62
510.00	32695.72
511.00	32674.66
512.00	32620.83
513.00	32496.00
514.00	32255.70
515.00	32027.11
516.00	31796.96
517.00	31755.61
518.00	31497.37
519.00	31370.20
520.00	31424.81
521.00	31541.84
522.00	31550.42
523.00	31780.57
524.00	32112.15
525.00	32662.18
526.00	32400.82
527.00	32130.09
528.00	31392.83
529.00	30956.71
530.00	30603.28
531.00	30614.99
532.00	30919.26
533.00	31263.32
534.00	31411.55
535.00	31614.40
536.00	31381.12
537.00	31369.42
538.00	31427.15
539.00	31615.18
540.00	31924.91
541.00	31898.38
542.00	32021.65
543.00	32079.38
544.00	32155.06
545.00	32289.25
546.00	31826.60
547.00	31469.28
548.00	31093.24
549.00	31339.77
550.00	31203.24
551.00	31222.75
552.00	31097.14
553.00	31408.43
554.00	31598.01
555.00	32080.94
556.00	32494.44
557.00	33184.90
558.00	33679.53
559.00	34018.91
560.00	34270.90
561.00	34270.90
562.00	33901.10
563.00	33454.84
564.00	32939.14
565.00	33124.82
566.00	33287.10
567.00	33347.17
568.00	33466.54
569.00	33383.84
570.00	33809.82
571.00	34238.14
572.00	34764.76
573.00	34922.35
574.00	34898.17
575.00	34849.02
576.00	35024.56
577.00	34941.86
578.00	34806.89
579.00	34433.96
580.00	34457.37
581.00	34361.40
582.00	34501.06
583.00	34238.14
584.00	34661.77
585.00	35031.58
586.00	35733.74
587.00	35952.97
588.00	36220.57
589.00	36616.90
590.00	37064.72
591.00	37553.90
592.00	37816.82
593.00	37899.51
594.00	37844.90
595.00	37659.22
596.00	37790.29
597.00	38068.81
598.00	38659.41
599.00	39182.13
600.00	39748.54
601.00	39754.00
602.00	39743.86
603.00	39703.29
604.00	39956.85
605.00	40432.75
606.00	40471.76
607.00	40670.71
608.00	40722.20
609.00	41103.71
610.00	41368.97
611.00	41505.50
612.00	41674.02
613.00	42121.06
614.00	42351.21
615.00	42547.82
616.00	42448.74
617.00	42510.37
618.00	42551.72
619.00	42682.01
620.00	42947.27
621.00	43144.66
622.00	43370.91
623.00	43718.09
624.00	43746.17
625.00	43561.27
626.00	43281.19
627.00	43451.27
628.00	43753.19
629.00	44041.08
630.00	44401.52
631.00	44223.64
632.00	43562.05
633.00	42547.82
634.00	41290.17
635.00	39629.17
636.00	37961.93
637.00	37182.53
638.00	37515.67
639.00	38423.01
640.00	39569.88
641.00	40732.34
642.00	41692.74
643.00	42560.30
644.00	43337.36
645.00	44339.89
646.00	45332.28
647.00	46123.38
648.00	46729.58
649.00	46941.00
650.00	46799.79
651.00	46351.19
652.00	45933.01
653.00	46054.72
654.00	46458.85
655.00	47537.84
656.00	48538.81
657.00	49567.09
658.00	49931.43
659.00	50239.60
660.00	50284.07
661.00	50389.39
662.00	50053.14
663.00	49910.36
664.00	49727.80
665.00	49803.48
666.00	49937.67
667.00	49777.73
668.00	49372.82
669.00	48617.61
670.00	48213.48
671.00	48258.73
672.00	48861.02
673.00	49688.01
674.00	50637.49
675.00	51411.43
676.00	51700.87
677.00	51564.34
678.00	51054.11
679.00	50897.29
680.00	50870.76
681.00	51232.77
682.00	51637.68
683.00	52338.28
684.00	52896.89
685.00	53381.38
686.00	53506.99
687.00	53560.04
688.00	53298.68
689.00	53010.79
690.00	52637.87
691.00	52520.06
692.00	52577.01
693.00	52981.15
694.00	53486.70
695.00	53985.24
696.00	53998.50
697.00	53975.87
698.00	53967.29
699.00	54268.44
700.00	54478.31
701.00	54632.78
702.00	54305.89
703.00	53902.54
704.00	53255.77
705.00	52907.81
706.00	52797.80
707.00	53068.53
708.00	53535.07
709.00	54004.74
710.00	54285.61
711.00	54638.25
712.00	54813.79
713.00	54865.28
714.00	54689.74
715.00	54252.84
716.00	53818.28
717.00	53535.07
718.00	53250.31
719.00	53298.68
720.00	53230.02
721.00	53292.44
722.00	53095.83
723.00	52853.20
724.00	52814.97
725.00	52701.06
726.00	52694.82
727.00	52917.95
728.00	53237.05
729.00	53627.91
730.00	53912.68
731.00	54130.35
732.00	54358.16
733.00	54356.60
734.00	54381.57
735.00	54160.78
736.00	53642.74
737.00	53162.93
738.00	52892.99
739.00	53090.37
740.00	53475.78
741.00	54119.43
742.00	54450.22
743.00	54563.35
744.00	54575.05
745.00	54869.96
746.00	55296.72
747.00	55618.93
748.00	55877.95
749.00	56075.33
750.00	56091.72
751.00	55807.73
752.00	55689.93
753.00	55356.79
754.00	55322.46
755.00	55146.92
756.00	55202.32
757.00	55120.40
758.00	54832.51
759.00	54512.64
760.00	54156.88
761.00	54122.55
762.00	54284.83
763.00	54645.27
764.00	54984.65
765.00	55372.39
766.00	55793.69
767.00	56100.30
768.00	56161.15
769.00	56069.87
770.00	55904.48
771.00	55575.24
772.00	55479.28
773.00	55442.61
774.00	55577.58
775.00	55570.56
776.00	55552.62
777.00	55622.05
778.00	55680.56
779.00	55974.69
780.00	56180.66
781.00	56509.11
782.00	56633.94
783.00	56638.62
784.00	56384.29
785.00	55942.70
786.00	55696.17
787.00	55469.14
788.00	55455.87
789.00	55515.95
790.00	55551.05
791.00	55655.60
792.00	55518.29
793.00	55458.21
794.00	55206.22
795.00	54957.34
796.00	54844.99
797.00	54859.04
798.00	55033.02
799.00	55188.27
800.00	55384.10
801.00	55498.00
802.00	55631.41
803.00	55564.32
804.00	55669.64
805.00	55845.18
806.00	56054.27
807.00	55801.49
808.00	55067.34
809.00	53924.38
810.00	52728.37
811.00	51322.49
812.00	50189.67
813.00	49528.86
814.00	50138.96
815.00	51362.28
816.00	52949.16
817.00	53741.04
818.00	53813.60
819.00	53085.69
820.00	52322.68
821.00	51998.90
822.00	52322.68
823.00	52976.47
824.00	53583.44
825.00	54141.27
826.00	54429.94
827.00	54766.20
828.00	55068.90
829.00	55537.01
830.00	55885.75
831.00	55929.44
832.00	55744.54
833.00	55422.33
834.00	55265.51
835.00	55275.65
836.00	55598.65
837.00	55904.48
838.00	56196.26
839.00	56264.92
840.00	56394.43
841.00	56403.79
842.00	56495.85
843.00	56258.68
844.00	55888.09
845.00	55473.04
846.00	55138.34
847.00	55026.77
848.00	55072.81
849.00	55332.60
850.00	55630.63
851.00	56062.07
852.00	56406.91
853.00	56854.73
854.00	57008.43
855.00	57198.01
856.00	57126.24
857.00	56994.39
858.00	56828.21
859.00	56618.34
860.00	56481.03
861.00	56463.86
862.00	56628.48
863.00	56756.43
864.00	56658.91
865.00	56143.99
866.00	55323.24
867.00	54303.55
868.00	53325.21
869.00	52782.20
870.00	52414.74
871.00	52645.67
872.00	53034.20
873.00	53824.52
874.00	54518.88
875.00	55108.69
876.00	55530.77
877.00	55770.28
878.00	55872.49
879.00	56108.10
880.00	56395.21
881.00	56738.49
882.00	56864.88
883.00	56976.44
884.00	56939.77
885.00	56694.80
886.00	56268.82
887.00	55901.36
888.00	55753.90
889.00	55923.98
890.00	56148.67
891.00	56509.11
892.00	56712.74
893.00	56852.39
894.00	56887.50
895.00	56947.57
896.00	56966.30
897.00	56818.84
898.00	56652.67
899.00	56516.14
900.00	56253.22
901.00	55820.22
902.00	55197.63
903.00	54624.20
904.00	54181.06
905.00	54161.56
906.00	54391.71
907.00	54779.46
908.00	55095.43
909.00	55635.31
910.00	55806.17
911.00	55805.39
912.00	55390.34
913.00	55292.82
914.00	55246.79
915.00	55413.74
916.00	55457.43
917.00	55709.43
918.00	55924.76
919.00	56145.55
920.00	56339.82
921.00	56572.31
922.00	56799.34
923.00	56690.12
924.00	56442.80
925.00	55934.12
926.00	55591.62
927.00	55136.00
928.00	54808.32
929.00	54451.00
930.00	54427.60
931.00	54703.78
932.00	55125.86
933.00	55397.36
934.00	55431.69
935.00	55410.62
936.00	55405.94
937.00	55483.96
938.00	55461.33
939.00	55419.20
940.00	55309.98
941.00	55013.51
942.00	54760.73
943.00	54489.23
944.00	54343.34
945.00	54159.22
946.00	54074.18
947.00	53975.87
948.00	53865.09
949.00	53592.81
950.00	53471.10
951.00	53255.77
952.00	53106.76
953.00	53113.78
954.00	53404.00
955.00	53805.80
956.00	54102.26
957.00	54211.49
958.00	54400.29
959.00	54367.52
960.00	54341.00
961.00	54165.46
962.00	54123.33
963.00	54128.79
964.00	54202.13
965.00	54102.26
966.00	54065.59
967.00	54089.00
968.00	54289.51
969.00	54475.97
970.00	54844.21
971.00	55139.90
972.00	55271.75
973.00	55054.08
974.00	54784.14
975.00	54710.02
976.00	54619.52
977.00	54630.44
978.00	54429.94
979.00	54373.77
980.00	54178.72
981.00	54359.72
982.00	54221.63
983.00	54305.89
984.00	54150.63
985.00	54163.12
986.00	54085.88
987.00	54003.18
988.00	54181.06
989.00	54116.31
990.00	54069.50
991.00	53666.14
992.00	53503.87
993.00	53228.46
994.00	53235.48
995.00	53315.06
996.00	53605.29
997.00	53880.69
998.00	54094.46
999.00	54152.19
1000.00	54143.61
1001.00	54176.38
1002.00	54269.22
1003.00	54264.54
1004.00	54293.41
1005.00	54170.92
1006.00	54127.23
1007.00	54001.62
1008.00	54014.10
1009.00	53848.71
1010.00	53726.22
1011.00	53471.88
1012.00	53517.13
1013.00	53364.21
1014.00	53451.59
1015.00	53439.89
1016.00	53687.99
1017.00	53949.35
1018.00	54113.19
1019.00	54216.95
1020.00	54011.76
1021.00	53850.27
1022.00	53553.80
1023.00	53272.93
1024.00	53079.45
1025.00	53017.03
1026.00	53191.01
1027.00	53299.46
1028.00	53413.37
1029.00	53430.53
1030.00	53450.81
1031.00	53661.46
1032.00	53779.27
1033.00	53997.72
1034.00	53875.23
1035.00	53924.38
1036.00	53931.40
1037.00	54032.83
1038.00	53900.20
1039.00	53659.12
1040.00	53425.85
1041.00	53276.05
1042.00	53165.27
1043.00	53070.09
1044.00	52979.59
1045.00	52813.41
1046.00	52583.26
1047.00	52282.11
1048.00	52135.43
1049.00	52077.70
1050.00	52224.37
1051.00	52215.79
1052.00	52385.87
1053.00	52499.78
1054.00	52618.36
1055.00	52518.50
1056.00	52320.34
1057.00	52090.18
1058.00	51541.72
1059.00	50964.38
1060.00	50585.22
1061.00	50629.69
1062.00	50898.85
1063.00	51010.42
1064.00	51083.75
1065.00	51107.94
1066.00	51098.58
1067.00	51067.37
1068.00	51171.91
1069.00	51443.41
1070.00	51823.36
1071.00	52140.11
1072.00	52438.92
1073.00	52513.04
1074.00	52201.75
1075.00	51818.68
1076.00	51302.20
1077.00	51042.40
1078.00	50869.98
1079.00	50880.91
1080.00	50969.07
1081.00	51165.67
1082.00	51437.95
1083.00	51523.77
1084.00	51608.81
1085.00	51756.27
1086.00	51867.83
1087.00	51761.73
1088.00	51470.72
1089.00	51348.23
1090.00	51095.45
1091.00	50817.71
1092.00	50663.24
1093.00	50749.06
1094.00	51112.62
1095.00	51178.15
1096.00	51124.32
1097.00	50912.89
1098.00	50785.72
1099.00	50601.60
1100.00	50270.81
1101.00	49800.36
1102.00	49466.44
1103.00	49240.97
1104.00	49154.37
1105.00	49282.32
1106.00	49477.36
1107.00	49793.34
1108.00	50011.01
1109.00	50115.55
1110.00	50346.48
1111.00	50418.26
1112.00	50559.47
1113.00	50373.79
1114.00	50253.64
1115.00	49871.35
1116.00	49582.69
1117.00	49250.33
1118.00	48988.97
1119.00	48653.50
1120.00	48300.86
1121.00	48288.37
1122.00	48413.98
1123.00	48644.13
1124.00	48811.09
1125.00	48876.63
1126.00	48885.21
1127.00	48741.66
1128.00	48580.16
1129.00	48216.60
1130.00	47952.90
1131.00	47520.68
1132.00	47289.74
1133.00	46873.13
1134.00	46696.03
1135.00	46565.74
1136.00	46613.33
1137.00	46869.23
1138.00	47107.96
1139.00	47633.02
1140.00	48034.81
1141.00	48399.94
1142.00	48495.90
1143.00	48507.60
1144.00	48518.53
1145.00	48390.58
1146.00	48291.49
1147.00	48087.87
1148.00	47940.41
1149.00	47769.55
1150.00	47760.97
1151.00	47757.07
1152.00	47730.54
1153.00	47743.03
1154.00	47544.86
1155.00	47351.38
1156.00	47001.86
1157.00	46856.74
1158.00	46614.11
1159.00	46344.95
1160.00	46172.53
1161.00	46076.57
1162.00	46112.45
1163.00	46046.92
1164.00	45892.44
1165.00	45804.28
1166.00	45798.04
1167.00	46124.94
1168.00	46462.75
1169.00	46594.60
1170.00	46537.65
1171.00	46312.96
1172.00	46051.60
1173.00	45795.70
1174.00	45712.22
1175.00	45838.61
1176.00	45738.75
1177.00	45348.66
1178.00	44788.49
1179.00	44361.73
1180.00	44316.48
1181.00	44471.74
1182.00	44790.83
1183.00	44926.58
1184.00	45052.97
1185.00	45162.20
1186.00	45216.81
1187.00	45278.44
1188.00	45297.17
1189.00	45399.37
1190.00	45555.41
1191.00	45668.53
1192.00	45533.56
1193.00	45437.60
1194.00	45317.45
1195.00	45321.35
1196.00	45315.89
1197.00	45358.80
1198.00	45536.68
1199.00	45662.29
1200.00	45648.25
1201.00	45744.99
1202.00	45649.81
1203.00	45869.82
1204.00	45979.04
1205.00	46140.54
1206.00	46057.84
1207.00	46064.08
1208.00	45996.99
1209.00	45961.88
1210.00	45858.90
1211.00	45867.48
1212.00	45943.16
1213.00	45936.13
1214.00	45815.21
1215.00	45729.39
