SpectraSuite Data File
++++++++++++++++++++++++++++++++++++
Date: Thu Nov 16 13:55:16 EST 2017
User: cheriyan
Dark Spectrum Present: No
Reference Spectrum Present: No
Number of Sampled Component Spectra: 1
Spectrometers: USB2+H05261
Integration Time (usec): 100000 (USB2+H05261)
Spectra Averaged: 1 (USB2+H05261)
Boxcar Smoothing: 1 (USB2+H05261)
Correct for Electrical Dark: No (USB2+H05261)
Strobe/Lamp Enabled: No (USB2+H05261)
Correct for Detector Non-linearity: No (USB2+H05261)
Correct for Stray Light: No (USB2+H05261)
Number of Pixels in Processed Spectrum: 2048
>>>>>Begin Processed Spectral Data<<<<<
0.00	332.36
1.00	332.36
2.00	329.24
3.00	303.49
4.00	292.57
5.00	262.92
6.00	267.60
7.00	259.02
8.00	248.10
9.00	228.59
10.00	208.31
11.00	217.67
12.00	218.45
13.00	216.89
14.00	203.63
15.00	227.03
16.00	247.32
17.00	262.14
18.00	250.44
19.00	249.66
20.00	269.16
21.00	301.93
22.00	340.16
23.00	344.06
24.00	325.33
25.00	296.47
26.00	312.85
27.00	357.32
28.00	354.98
29.00	379.17
30.00	364.34
31.00	391.65
32.00	374.49
33.00	395.55
34.00	397.89
35.00	397.11
36.00	384.63
37.00	368.24
38.00	372.93
39.00	361.22
40.00	384.63
41.00	410.37
42.00	425.20
43.00	440.02
44.00	445.48
45.00	454.06
46.00	449.38
47.00	437.68
48.00	435.34
49.00	428.32
50.00	420.52
51.00	429.10
52.00	443.92
53.00	432.22
54.00	403.35
55.00	383.85
56.00	387.75
57.00	390.87
58.00	388.53
59.00	390.09
60.00	402.57
61.00	393.99
62.00	417.40
63.00	420.52
64.00	432.22
65.00	404.13
66.00	415.06
67.00	411.93
68.00	443.14
69.00	433.00
70.00	442.36
71.00	423.64
72.00	423.64
73.00	403.35
74.00	379.17
75.00	358.10
76.00	337.04
77.00	346.40
78.00	374.49
79.00	411.15
80.00	456.40
81.00	462.65
82.00	447.82
83.00	422.86
84.00	384.63
85.00	402.57
86.00	379.17
87.00	386.97
88.00	408.81
89.00	425.98
90.00	432.22
91.00	422.86
92.00	423.64
93.00	410.37
94.00	402.57
95.00	403.35
96.00	427.54
97.00	429.88
98.00	436.90
99.00	423.64
100.00	436.90
101.00	411.93
102.00	409.59
103.00	385.41
104.00	376.05
105.00	358.10
106.00	351.08
107.00	368.24
108.00	390.87
109.00	413.49
110.00	424.42
111.00	438.46
112.00	422.86
113.00	423.64
114.00	402.57
115.00	403.35
116.00	404.13
117.00	415.06
118.00	415.84
119.00	413.49
120.00	418.18
121.00	429.88
122.00	417.40
123.00	406.47
124.00	412.71
125.00	423.64
126.00	422.08
127.00	389.31
128.00	389.31
129.00	405.69
130.00	423.64
131.00	414.27
132.00	401.01
133.00	431.44
134.00	436.12
135.00	449.38
136.00	424.42
137.00	421.30
138.00	416.62
139.00	403.35
140.00	404.13
141.00	380.73
142.00	398.67
143.00	396.33
144.00	424.42
145.00	463.43
146.00	497.75
147.00	518.82
148.00	491.51
149.00	472.01
150.00	436.12
151.00	399.45
152.00	415.84
153.00	418.18
154.00	473.57
155.00	450.94
156.00	478.25
157.00	427.54
158.00	438.46
159.00	423.64
160.00	428.32
161.00	402.57
162.00	365.12
163.00	376.05
164.00	399.45
165.00	433.00
166.00	436.12
167.00	407.25
168.00	411.15
169.00	404.13
170.00	421.30
171.00	445.48
172.00	453.28
173.00	463.43
174.00	431.44
175.00	422.08
176.00	406.47
177.00	395.55
178.00	397.11
179.00	402.57
180.00	405.69
181.00	418.18
182.00	417.40
183.00	449.38
184.00	440.80
185.00	467.33
186.00	428.32
187.00	418.18
188.00	386.19
189.00	376.83
190.00	411.15
191.00	398.67
192.00	418.18
193.00	418.18
194.00	472.79
195.00	521.94
196.00	549.25
197.00	532.08
198.00	499.31
199.00	460.31
200.00	442.36
201.00	461.09
202.00	467.33
203.00	447.82
204.00	396.33
205.00	377.61
206.00	401.01
207.00	405.69
208.00	406.47
209.00	414.27
210.00	437.68
211.00	429.88
212.00	406.47
213.00	402.57
214.00	391.65
215.00	435.34
216.00	433.78
217.00	433.78
218.00	418.18
219.00	431.44
220.00	462.65
221.00	468.89
222.00	462.65
223.00	447.82
224.00	431.44
225.00	425.98
226.00	431.44
227.00	421.30
228.00	415.06
229.00	416.62
230.00	410.37
231.00	416.62
232.00	408.81
233.00	412.71
234.00	420.52
235.00	411.93
236.00	415.06
237.00	393.21
238.00	387.75
239.00	391.65
240.00	396.33
241.00	394.77
242.00	384.63
243.00	378.39
244.00	392.43
245.00	397.89
246.00	417.40
247.00	428.32
248.00	429.10
249.00	431.44
250.00	418.96
251.00	408.03
252.00	398.67
253.00	402.57
254.00	428.32
255.00	476.69
256.00	482.93
257.00	470.45
258.00	440.80
259.00	447.82
260.00	463.43
261.00	440.02
262.00	426.76
263.00	415.84
264.00	443.92
265.00	476.69
266.00	498.53
267.00	547.69
268.00	576.55
269.00	581.23
270.00	567.19
271.00	544.56
272.00	589.81
273.00	592.16
274.00	606.98
275.00	560.17
276.00	554.71
277.00	546.91
278.00	571.87
279.00	561.73
280.00	532.86
281.00	490.73
282.00	440.80
283.00	404.13
284.00	374.49
285.00	401.01
286.00	411.93
287.00	434.56
288.00	418.18
289.00	443.14
290.00	442.36
291.00	425.20
292.00	412.71
293.00	410.37
294.00	409.59
295.00	390.87
296.00	376.05
297.00	387.75
298.00	398.67
299.00	407.25
300.00	420.52
301.00	410.37
302.00	397.11
303.00	397.89
304.00	393.99
305.00	440.80
306.00	474.35
307.00	545.34
308.00	610.88
309.00	626.48
310.00	630.38
311.00	571.09
312.00	528.96
313.00	472.79
314.00	427.54
315.00	429.10
316.00	446.26
317.00	464.99
318.00	454.84
319.00	443.14
320.00	450.16
321.00	445.48
322.00	434.56
323.00	412.71
324.00	418.18
325.00	425.98
326.00	445.48
327.00	429.10
328.00	436.90
329.00	425.98
330.00	454.84
331.00	445.48
332.00	436.12
333.00	404.13
334.00	406.47
335.00	427.54
336.00	440.80
337.00	432.22
338.00	419.74
339.00	429.10
340.00	443.92
341.00	468.11
342.00	439.24
343.00	440.80
344.00	406.47
345.00	441.58
346.00	518.04
347.00	624.14
348.00	709.18
349.00	716.98
350.00	689.68
351.00	650.67
352.00	576.55
353.00	538.32
354.00	511.02
355.00	525.84
356.00	488.39
357.00	459.53
358.00	415.06
359.00	415.84
360.00	415.84
361.00	426.76
362.00	438.46
363.00	429.10
364.00	408.81
365.00	399.45
366.00	396.33
367.00	387.75
368.00	419.74
369.00	437.68
370.00	461.09
371.00	445.48
372.00	418.18
373.00	415.84
374.00	379.17
375.00	383.85
376.00	384.63
377.00	408.81
378.00	411.93
379.00	429.10
380.00	429.88
381.00	436.12
382.00	406.47
383.00	402.57
384.00	397.89
385.00	440.02
386.00	420.52
387.00	401.01
388.00	379.95
389.00	399.45
390.00	420.52
391.00	398.67
392.00	399.45
393.00	404.91
394.00	415.06
395.00	443.92
396.00	429.10
397.00	430.66
398.00	397.11
399.00	406.47
400.00	418.18
401.00	417.40
402.00	416.62
403.00	415.06
404.00	425.98
405.00	425.20
406.00	429.10
407.00	423.64
408.00	417.40
409.00	437.68
410.00	432.22
411.00	447.82
412.00	424.42
413.00	414.27
414.00	406.47
415.00	393.99
416.00	418.96
417.00	397.89
418.00	401.01
419.00	399.45
420.00	422.86
421.00	408.03
422.00	397.11
423.00	393.99
424.00	404.91
425.00	426.76
426.00	448.60
427.00	436.90
428.00	429.10
429.00	413.49
430.00	430.66
431.00	414.27
432.00	402.57
433.00	389.31
434.00	392.43
435.00	393.99
436.00	437.68
437.00	443.92
438.00	440.02
439.00	414.27
440.00	421.30
441.00	450.16
442.00	482.93
443.00	485.27
444.00	484.49
445.00	455.62
446.00	463.43
447.00	447.82
448.00	451.72
449.00	440.02
450.00	424.42
451.00	408.03
452.00	410.37
453.00	429.10
454.00	429.10
455.00	426.76
456.00	429.88
457.00	421.30
458.00	411.93
459.00	393.21
460.00	415.84
461.00	392.43
462.00	386.19
463.00	374.49
464.00	380.73
465.00	401.01
466.00	415.06
467.00	425.98
468.00	422.86
469.00	414.27
470.00	393.21
471.00	396.33
472.00	383.07
473.00	412.71
474.00	407.25
475.00	409.59
476.00	421.30
477.00	424.42
478.00	422.86
479.00	418.96
480.00	416.62
481.00	439.24
482.00	451.72
483.00	446.26
484.00	444.70
485.00	407.25
486.00	396.33
487.00	356.54
488.00	386.97
489.00	416.62
490.00	468.89
491.00	468.11
492.00	459.53
493.00	442.36
494.00	447.82
495.00	430.66
496.00	419.74
497.00	422.86
498.00	425.98
499.00	433.00
500.00	408.03
501.00	412.71
502.00	390.09
503.00	382.29
504.00	386.19
505.00	395.55
506.00	431.44
507.00	436.90
508.00	462.65
509.00	416.62
510.00	408.81
511.00	386.97
512.00	399.45
513.00	400.23
514.00	403.35
515.00	415.84
516.00	414.27
517.00	414.27
518.00	432.22
519.00	438.46
520.00	425.20
521.00	425.20
522.00	429.88
523.00	447.82
524.00	420.52
525.00	403.35
526.00	418.18
527.00	411.93
528.00	436.12
529.00	421.30
530.00	446.26
531.00	446.26
532.00	458.75
533.00	451.72
534.00	427.54
535.00	415.06
536.00	422.08
537.00	416.62
538.00	408.81
539.00	413.49
540.00	438.46
541.00	443.14
542.00	452.50
543.00	443.14
544.00	442.36
545.00	388.53
546.00	383.85
547.00	422.08
548.00	470.45
549.00	493.85
550.00	482.15
551.00	462.65
552.00	459.53
553.00	450.16
554.00	460.31
555.00	475.13
556.00	471.23
557.00	468.89
558.00	430.66
559.00	422.86
560.00	393.21
561.00	393.21
562.00	388.53
563.00	415.84
564.00	438.46
565.00	432.22
566.00	423.64
567.00	408.03
568.00	391.65
569.00	380.73
570.00	362.00
571.00	376.05
572.00	401.79
573.00	431.44
574.00	430.66
575.00	413.49
576.00	417.40
577.00	429.88
578.00	446.26
579.00	443.14
580.00	452.50
581.00	404.91
582.00	386.97
583.00	360.44
584.00	386.19
585.00	400.23
586.00	398.67
587.00	404.91
588.00	400.23
589.00	415.06
590.00	420.52
591.00	415.06
592.00	416.62
593.00	405.69
594.00	404.13
595.00	408.03
596.00	423.64
597.00	430.66
598.00	417.40
599.00	414.27
600.00	436.90
601.00	427.54
602.00	430.66
603.00	416.62
604.00	437.68
605.00	416.62
606.00	425.20
607.00	409.59
608.00	399.45
609.00	388.53
610.00	415.84
611.00	465.77
612.00	451.72
613.00	408.81
614.00	369.80
615.00	370.58
616.00	401.01
617.00	422.86
618.00	418.18
619.00	440.02
620.00	430.66
621.00	461.87
622.00	450.16
623.00	445.48
624.00	422.86
625.00	408.03
626.00	411.93
627.00	395.55
628.00	386.19
629.00	401.79
630.00	420.52
631.00	440.80
632.00	427.54
633.00	431.44
634.00	437.68
635.00	426.76
636.00	431.44
637.00	422.86
638.00	443.92
639.00	441.58
640.00	452.50
641.00	454.06
642.00	446.26
643.00	442.36
644.00	436.90
645.00	426.76
646.00	414.27
647.00	417.40
648.00	410.37
649.00	423.64
650.00	406.47
651.00	429.88
652.00	450.94
653.00	461.09
654.00	512.58
655.00	478.25
656.00	499.31
657.00	433.00
658.00	417.40
659.00	404.91
660.00	425.20
661.00	469.67
662.00	454.84
663.00	468.89
664.00	454.84
665.00	461.87
666.00	441.58
667.00	424.42
668.00	396.33
669.00	390.09
670.00	379.95
671.00	393.21
672.00	408.03
673.00	426.76
674.00	479.81
675.00	462.65
676.00	450.16
677.00	411.93
678.00	437.68
679.00	461.87
680.00	467.33
681.00	464.21
682.00	451.72
683.00	435.34
684.00	397.89
685.00	393.99
686.00	390.09
687.00	399.45
688.00	397.11
689.00	393.99
690.00	396.33
691.00	400.23
692.00	419.74
693.00	410.37
694.00	423.64
695.00	418.18
696.00	443.92
697.00	422.08
698.00	434.56
699.00	428.32
700.00	461.87
701.00	457.96
702.00	450.94
703.00	428.32
704.00	422.86
705.00	437.68
706.00	434.56
707.00	424.42
708.00	402.57
709.00	415.84
710.00	447.04
711.00	461.87
712.00	454.06
713.00	413.49
714.00	415.06
715.00	438.46
716.00	479.03
717.00	480.59
718.00	518.04
719.00	504.00
720.00	532.86
721.00	451.72
722.00	437.68
723.00	412.71
724.00	426.76
725.00	448.60
726.00	417.40
727.00	418.18
728.00	364.34
729.00	406.47
730.00	401.79
731.00	430.66
732.00	420.52
733.00	453.28
734.00	496.97
735.00	517.26
736.00	514.92
737.00	504.78
738.00	505.56
739.00	500.09
740.00	491.51
741.00	479.81
742.00	465.77
743.00	475.13
744.00	489.95
745.00	493.07
746.00	455.62
747.00	442.36
748.00	433.00
749.00	429.88
750.00	418.96
751.00	436.90
752.00	464.21
753.00	433.78
754.00	438.46
755.00	405.69
756.00	421.30
757.00	396.33
758.00	429.10
759.00	450.16
760.00	502.43
761.00	507.12
762.00	489.17
763.00	434.56
764.00	427.54
765.00	443.92
766.00	453.28
767.00	464.99
768.00	448.60
769.00	436.12
770.00	403.35
771.00	401.01
772.00	429.10
773.00	444.70
774.00	443.92
775.00	420.52
776.00	429.10
777.00	445.48
778.00	457.96
779.00	500.09
780.00	532.86
781.00	591.38
782.00	568.75
783.00	628.82
784.00	591.38
785.00	572.65
786.00	457.18
787.00	411.15
788.00	407.25
789.00	409.59
790.00	420.52
791.00	403.35
792.00	405.69
793.00	372.93
794.00	394.77
795.00	396.33
796.00	444.70
797.00	464.99
798.00	491.51
799.00	511.02
800.00	502.44
801.00	456.40
802.00	424.42
803.00	414.27
804.00	458.75
805.00	468.89
806.00	457.18
807.00	439.24
808.00	445.48
809.00	448.60
810.00	454.84
811.00	429.10
812.00	414.27
813.00	404.91
814.00	408.03
815.00	399.45
816.00	402.57
817.00	403.35
818.00	425.98
819.00	421.30
820.00	440.02
821.00	480.59
822.00	511.02
823.00	523.50
824.00	477.47
825.00	464.21
826.00	457.18
827.00	461.09
828.00	461.87
829.00	457.18
830.00	476.69
831.00	472.79
832.00	474.35
833.00	461.87
834.00	456.40
835.00	473.57
836.00	482.15
837.00	472.01
838.00	447.82
839.00	420.52
840.00	433.00
841.00	429.10
842.00	454.84
843.00	462.65
844.00	489.17
845.00	479.81
846.00	480.59
847.00	453.28
848.00	445.48
849.00	430.66
850.00	449.38
851.00	457.18
852.00	449.38
853.00	424.42
854.00	415.84
855.00	429.88
856.00	454.06
857.00	429.10
858.00	421.30
859.00	392.43
860.00	447.04
861.00	447.04
862.00	463.43
863.00	449.38
864.00	454.84
865.00	439.24
866.00	438.46
867.00	451.72
868.00	488.39
869.00	441.58
870.00	410.37
871.00	395.55
872.00	423.64
873.00	452.50
874.00	423.64
875.00	434.56
876.00	422.08
877.00	444.70
878.00	455.62
879.00	437.68
880.00	421.30
881.00	394.77
882.00	407.25
883.00	413.49
884.00	450.16
885.00	448.60
886.00	454.06
887.00	445.48
888.00	445.48
889.00	463.43
890.00	447.04
891.00	444.70
892.00	445.48
893.00	475.91
894.00	484.49
895.00	457.18
896.00	436.90
897.00	449.38
898.00	456.40
899.00	450.94
900.00	436.12
901.00	442.36
902.00	461.09
903.00	518.04
904.00	642.09
905.00	761.45
906.00	823.09
907.00	791.88
908.00	735.71
909.00	1036.86
910.00	1058.70
911.00	1126.58
912.00	885.50
913.00	911.25
914.00	869.12
915.00	777.06
916.00	667.05
917.00	574.21
918.00	503.22
919.00	464.99
920.00	454.84
921.00	467.33
922.00	488.39
923.00	468.89
924.00	464.99
925.00	443.92
926.00	444.70
927.00	404.91
928.00	404.91
929.00	416.62
930.00	424.42
931.00	422.08
932.00	411.93
933.00	413.49
934.00	404.91
935.00	404.91
936.00	418.18
937.00	434.56
938.00	449.38
939.00	429.88
940.00	426.76
941.00	455.62
942.00	483.71
943.00	656.91
944.00	1078.21
945.00	1945.77
946.00	2932.69
947.00	3631.73
948.00	3667.62
949.00	3130.86
950.00	2332.73
951.00	1617.31
952.00	1075.09
953.00	745.85
954.00	565.63
955.00	491.51
956.00	477.47
957.00	459.53
958.00	465.77
959.00	463.43
960.00	471.23
961.00	443.92
962.00	422.08
963.00	415.84
964.00	446.26
965.00	468.89
966.00	493.07
967.00	468.11
968.00	471.23
969.00	452.50
970.00	460.31
971.00	442.36
972.00	425.98
973.00	418.96
974.00	398.67
975.00	393.21
976.00	409.59
977.00	397.89
978.00	399.45
979.00	388.53
980.00	424.42
981.00	414.27
982.00	425.98
983.00	430.66
984.00	444.70
985.00	438.46
986.00	441.58
987.00	457.96
988.00	468.11
989.00	458.75
990.00	436.90
991.00	411.15
992.00	413.49
993.00	406.47
994.00	441.58
995.00	445.48
996.00	461.87
997.00	426.76
998.00	433.78
999.00	452.50
1000.00	475.91
1001.00	464.99
1002.00	448.60
1003.00	451.72
1004.00	443.92
1005.00	429.88
1006.00	404.13
1007.00	425.20
1008.00	454.06
1009.00	476.69
1010.00	491.51
1011.00	504.00
1012.00	494.63
1013.00	475.91
1014.00	453.28
1015.00	454.06
1016.00	415.06
1017.00	418.96
1018.00	434.56
1019.00	470.45
1020.00	481.37
1021.00	454.06
1022.00	447.82
1023.00	424.42
1024.00	436.90
1025.00	433.00
1026.00	435.34
1027.00	455.62
1028.00	464.99
1029.00	453.28
1030.00	439.24
1031.00	407.25
1032.00	434.56
1033.00	438.46
1034.00	451.72
1035.00	448.60
1036.00	429.10
1037.00	443.14
1038.00	442.36
1039.00	455.62
1040.00	440.80
1041.00	437.68
1042.00	461.87
1043.00	487.61
1044.00	496.97
1045.00	531.30
1046.00	535.20
1047.00	532.08
1048.00	480.59
1049.00	458.75
1050.00	441.58
1051.00	428.32
1052.00	411.15
1053.00	443.14
1054.00	461.09
1055.00	480.59
1056.00	461.09
1057.00	457.18
1058.00	482.93
1059.00	472.01
1060.00	433.78
1061.00	426.76
1062.00	427.54
1063.00	462.65
1064.00	461.09
1065.00	453.28
1066.00	455.62
1067.00	460.31
1068.00	493.85
1069.00	479.03
1070.00	466.55
1071.00	471.23
1072.00	468.89
1073.00	472.01
1074.00	436.90
1075.00	433.78
1076.00	436.90
1077.00	440.80
1078.00	461.09
1079.00	457.18
1080.00	452.50
1081.00	417.40
1082.00	416.62
1083.00	435.34
1084.00	447.04
1085.00	437.68
1086.00	429.88
1087.00	454.06
1088.00	431.44
1089.00	431.44
1090.00	414.27
1091.00	446.26
1092.00	435.34
1093.00	444.70
1094.00	429.10
1095.00	454.06
1096.00	450.94
1097.00	458.75
1098.00	435.34
1099.00	480.59
1100.00	550.03
1101.00	605.42
1102.00	610.10
1103.00	580.45
1104.00	557.83
1105.00	532.86
1106.00	510.24
1107.00	491.51
1108.00	454.84
1109.00	446.26
1110.00	444.70
1111.00	436.90
1112.00	432.22
1113.00	427.54
1114.00	419.74
1115.00	426.76
1116.00	438.46
1117.00	483.71
1118.00	472.79
1119.00	479.03
1120.00	513.36
1121.00	532.86
1122.00	570.31
1123.00	514.92
1124.00	518.82
1125.00	474.35
1126.00	476.69
1127.00	461.09
1128.00	468.89
1129.00	480.59
1130.00	468.89
1131.00	443.92
1132.00	447.82
1133.00	465.77
1134.00	486.83
1135.00	461.09
1136.00	470.45
1137.00	491.51
1138.00	506.34
1139.00	545.34
1140.00	525.84
1141.00	550.03
1142.00	508.68
1143.00	507.12
1144.00	478.25
1145.00	448.60
1146.00	450.16
1147.00	474.35
1148.00	458.75
1149.00	451.72
1150.00	444.70
1151.00	464.99
1152.00	454.84
1153.00	459.53
1154.00	528.18
1155.00	619.46
1156.00	722.45
1157.00	767.70
1158.00	746.63
1159.00	674.07
1160.00	613.22
1161.00	575.77
1162.00	555.49
1163.00	605.42
1164.00	776.28
1165.00	1075.87
1166.00	1416.80
1167.00	1689.09
1168.00	1736.68
1169.00	1595.47
1170.00	1309.92
1171.00	1039.98
1172.00	834.79
1173.00	712.30
1174.00	646.77
1175.00	642.87
1176.00	620.24
1177.00	616.34
1178.00	571.87
1179.00	577.33
1180.00	579.67
1181.00	588.25
1182.00	629.60
1183.00	645.21
1184.00	670.95
1185.00	650.67
1186.00	680.32
1187.00	660.03
1188.00	682.66
1189.00	692.80
1190.00	761.45
1191.00	776.28
1192.00	838.69
1193.00	877.70
1194.00	910.47
1195.00	855.08
1196.00	795.78
1197.00	766.14
1198.00	842.59
1199.00	1011.11
1200.00	1249.07
1201.00	1431.63
1202.00	1520.57
1203.00	1497.94
1204.00	1397.30
1205.00	1275.59
1206.00	1171.05
1207.00	1133.60
1208.00	1125.80
1209.00	1139.84
1210.00	1195.23
1211.00	1219.42
1212.00	1320.06
1213.00	1435.53
1214.00	1701.57
1215.00	1983.21
1216.00	2507.49
1217.00	5680.48
1218.00	21165.46
1219.00	41943.18
1220.00	59941.12
1221.00	65535.00
1222.00	65535.00
1223.00	65535.00
1224.00	65535.00
1225.00	65361.02
1226.00	56155.69
1227.00	40491.27
1228.00	21784.93
1229.00	10672.84
1230.00	5442.53
1231.00	3180.01
1232.00	2238.33
1233.00	1864.63
1234.00	1691.43
1235.00	1661.00
1236.00	2104.14
1237.00	3740.18
1238.00	7079.34
1239.00	11609.84
1240.00	15254.83
1241.00	16338.50
1242.00	14567.49
1243.00	11291.52
1244.00	7753.41
1245.00	4835.55
1246.00	2837.51
1247.00	1795.19
1248.00	1223.32
1249.00	1000.97
1250.00	929.97
1251.00	991.61
1252.00	1091.47
1253.00	1193.67
1254.00	1295.88
1255.00	1267.01
1256.00	1222.54
1257.00	1102.39
1258.00	1014.23
1259.00	921.39
1260.00	858.20
1261.00	862.10
1262.00	861.32
1263.00	884.72
1264.00	846.49
1265.00	810.61
1266.00	760.67
1267.00	764.57
1268.00	766.14
1269.00	773.94
1270.00	770.82
1271.00	761.45
1272.00	779.40
1273.00	797.34
1274.00	863.66
1275.00	1245.16
1276.00	3023.97
1277.00	7204.95
1278.00	14623.67
1279.00	22959.10
1280.00	28676.24
1281.00	28819.80
1282.00	24480.44
1283.00	17834.88
1284.00	11605.16
1285.00	6627.62
1286.00	3676.98
1287.00	2093.22
1288.00	1334.89
1289.00	999.41
1290.00	872.24
1291.00	848.83
1292.00	896.43
1293.00	919.83
1294.00	936.21
1295.00	1078.99
1296.00	1695.33
1297.00	2947.51
1298.00	4775.47
1299.00	6336.61
1300.00	6920.96
1301.00	6342.07
1302.00	5089.10
1303.00	3676.98
1304.00	2470.05
1305.00	1626.67
1306.00	1182.75
1307.00	941.68
1308.00	847.27
1309.00	834.01
1310.00	823.09
1311.00	769.26
1312.00	692.02
1313.00	635.85
1314.00	596.84
1315.00	574.21
1316.00	543.00
1317.00	546.91
1318.00	587.47
1319.00	602.30
1320.00	594.50
1321.00	546.12
1322.00	540.66
1323.00	524.28
1324.00	530.52
1325.00	541.44
1326.00	564.07
1327.00	578.11
1328.00	599.96
1329.00	667.05
1330.00	1032.96
1331.00	1932.50
1332.00	3532.65
1333.00	5483.10
1334.00	6957.63
1335.00	7388.29
1336.00	6622.94
1337.00	5220.96
1338.00	3677.76
1339.00	2397.49
1340.00	1560.36
1341.00	1071.19
1342.00	819.97
1343.00	692.80
1344.00	645.99
1345.00	638.19
1346.00	631.94
1347.00	629.60
1348.00	645.21
1349.00	649.89
1350.00	663.15
1351.00	671.73
1352.00	703.72
1353.00	721.67
1354.00	716.98
1355.00	727.91
1356.00	771.60
