SpectraSuite Data File
++++++++++++++++++++++++++++++++++++
Date: Thu Nov 16 13:55:18 EST 2017
User: cheriyan
Dark Spectrum Present: No
Reference Spectrum Present: No
Number of Sampled Component Spectra: 1
Spectrometers: USB2+H05261
Integration Time (usec): 100000 (USB2+H05261)
Spectra Averaged: 1 (USB2+H05261)
Boxcar Smoothing: 1 (USB2+H05261)
Correct for Electrical Dark: No (USB2+H05261)
Strobe/Lamp Enabled: No (USB2+H05261)
Correct for Detector Non-linearity: No (USB2+H05261)
Correct for Stray Light: No (USB2+H05261)
Number of Pixels in Processed Spectrum: 2048
>>>>>Begin Processed Spectral Data<<<<<
0.00	339.38
1.00	339.38
2.00	313.63
3.00	290.23
4.00	262.92
5.00	257.46
6.00	230.93
7.00	233.27
8.00	235.61
9.00	230.93
10.00	216.89
11.00	205.19
12.00	224.69
13.00	241.08
14.00	228.59
15.00	220.79
16.00	207.53
17.00	234.83
18.00	251.22
19.00	262.14
20.00	282.42
21.00	282.42
22.00	309.73
23.00	294.13
24.00	316.75
25.00	312.07
26.00	344.84
27.00	372.93
28.00	394.77
29.00	411.93
30.00	392.43
31.00	373.71
32.00	354.98
33.00	362.00
34.00	377.61
35.00	389.31
36.00	413.49
37.00	404.13
38.00	414.27
39.00	410.37
40.00	435.34
41.00	438.46
42.00	425.98
43.00	422.08
44.00	394.77
45.00	388.53
46.00	403.35
47.00	435.34
48.00	439.24
49.00	431.44
50.00	430.66
51.00	464.21
52.00	463.43
53.00	460.31
54.00	428.32
55.00	426.76
56.00	436.90
57.00	442.36
58.00	441.58
59.00	422.86
60.00	411.15
61.00	390.09
62.00	357.32
63.00	373.71
64.00	372.93
65.00	418.96
66.00	419.74
67.00	421.30
68.00	404.13
69.00	367.46
70.00	346.40
71.00	338.60
72.00	352.64
73.00	383.85
74.00	380.73
75.00	397.89
76.00	379.95
77.00	386.97
78.00	389.31
79.00	413.49
80.00	432.22
81.00	430.66
82.00	417.40
83.00	392.43
84.00	382.29
85.00	375.27
86.00	390.09
87.00	422.08
88.00	440.02
89.00	438.46
90.00	422.86
91.00	415.06
92.00	430.66
93.00	424.42
94.00	421.30
95.00	386.97
96.00	370.58
97.00	382.29
98.00	385.41
99.00	388.53
100.00	386.19
101.00	401.79
102.00	401.79
103.00	390.09
104.00	387.75
105.00	378.39
106.00	397.89
107.00	400.23
108.00	397.11
109.00	363.56
110.00	362.78
111.00	374.49
112.00	358.88
113.00	357.32
114.00	343.28
115.00	367.46
116.00	362.00
117.00	383.07
118.00	399.45
119.00	386.97
120.00	401.79
121.00	400.23
122.00	418.18
123.00	416.62
124.00	389.31
125.00	425.20
126.00	404.91
127.00	423.64
128.00	397.89
129.00	393.99
130.00	394.77
131.00	393.21
132.00	404.13
133.00	418.96
134.00	404.13
135.00	415.06
136.00	408.03
137.00	408.81
138.00	404.13
139.00	424.42
140.00	436.90
141.00	453.28
142.00	469.67
143.00	473.57
144.00	485.27
145.00	486.83
146.00	507.12
147.00	505.56
148.00	493.07
149.00	492.29
150.00	457.96
151.00	447.82
152.00	429.10
153.00	435.34
154.00	441.58
155.00	427.54
156.00	423.64
157.00	401.01
158.00	400.23
159.00	400.23
160.00	393.99
161.00	401.79
162.00	425.20
163.00	440.02
164.00	440.02
165.00	430.66
166.00	425.98
167.00	409.59
168.00	386.19
169.00	390.09
170.00	411.15
171.00	428.32
172.00	430.66
173.00	408.81
174.00	394.77
175.00	358.10
176.00	374.49
177.00	372.93
178.00	388.53
179.00	372.15
180.00	394.77
181.00	415.84
182.00	431.44
183.00	412.71
184.00	393.21
185.00	386.97
186.00	396.33
187.00	399.45
188.00	393.99
189.00	373.71
190.00	378.39
191.00	380.73
192.00	405.69
193.00	431.44
194.00	476.69
195.00	500.09
196.00	518.82
197.00	513.36
198.00	493.07
199.00	471.23
200.00	430.66
201.00	440.02
202.00	440.02
203.00	429.10
204.00	427.54
205.00	404.13
206.00	430.66
207.00	436.12
208.00	426.76
209.00	428.32
210.00	418.96
211.00	442.36
212.00	431.44
213.00	413.49
214.00	393.99
215.00	387.75
216.00	411.93
217.00	408.81
218.00	436.90
219.00	392.43
220.00	381.51
221.00	351.08
222.00	350.30
223.00	376.05
224.00	364.34
225.00	379.17
226.00	393.99
227.00	418.96
228.00	438.46
229.00	404.13
230.00	397.89
231.00	382.29
232.00	387.75
233.00	379.17
234.00	392.43
235.00	401.01
236.00	401.01
237.00	408.81
238.00	401.79
239.00	415.06
240.00	383.07
241.00	388.53
242.00	379.17
243.00	381.51
244.00	395.55
245.00	418.18
246.00	431.44
247.00	426.76
248.00	374.49
249.00	390.09
250.00	408.81
251.00	460.31
252.00	433.00
253.00	422.86
254.00	434.56
255.00	459.53
256.00	454.06
257.00	421.30
258.00	425.98
259.00	437.68
260.00	434.56
261.00	414.27
262.00	393.21
263.00	414.27
264.00	421.30
265.00	461.09
266.00	485.27
267.00	523.50
268.00	521.16
269.00	543.78
270.00	577.33
271.00	603.86
272.00	621.02
273.00	635.07
274.00	628.04
275.00	594.50
276.00	563.29
277.00	549.25
278.00	546.12
279.00	523.50
280.00	497.75
281.00	456.40
282.00	420.52
283.00	424.42
284.00	440.80
285.00	430.66
286.00	441.58
287.00	433.78
288.00	446.26
289.00	426.76
290.00	405.69
291.00	411.15
292.00	400.23
293.00	413.49
294.00	408.03
295.00	396.33
296.00	409.59
297.00	407.25
298.00	417.40
299.00	411.15
300.00	414.27
301.00	426.76
302.00	433.00
303.00	440.80
304.00	444.70
305.00	443.92
306.00	472.79
307.00	532.08
308.00	601.52
309.00	642.87
310.00	629.60
311.00	599.18
312.00	532.08
313.00	486.05
314.00	450.16
315.00	438.46
316.00	450.16
317.00	449.38
318.00	443.92
319.00	422.86
320.00	443.14
321.00	457.18
322.00	453.28
323.00	422.86
324.00	401.79
325.00	406.47
326.00	390.87
327.00	420.52
328.00	397.89
329.00	401.79
330.00	393.99
331.00	422.86
332.00	422.08
333.00	414.27
334.00	398.67
335.00	405.69
336.00	402.57
337.00	399.45
338.00	427.54
339.00	437.68
340.00	461.09
341.00	438.46
342.00	413.49
343.00	390.09
344.00	397.11
345.00	441.58
346.00	538.32
347.00	650.67
348.00	730.25
349.00	735.71
350.00	688.90
351.00	629.60
352.00	547.69
353.00	494.63
354.00	473.57
355.00	484.49
356.00	470.45
357.00	450.16
358.00	423.64
359.00	426.76
360.00	430.66
361.00	430.66
362.00	411.93
363.00	401.01
364.00	432.22
365.00	427.54
366.00	424.42
367.00	394.77
368.00	430.66
369.00	414.27
370.00	405.69
371.00	383.85
372.00	408.03
373.00	435.34
374.00	436.90
375.00	435.34
376.00	446.26
377.00	425.20
378.00	422.86
379.00	379.17
380.00	406.47
381.00	425.98
382.00	451.72
383.00	465.77
384.00	461.87
385.00	449.38
386.00	434.56
387.00	418.96
388.00	421.30
389.00	411.15
390.00	415.06
391.00	421.30
392.00	422.86
393.00	415.84
394.00	411.15
395.00	420.52
396.00	436.90
397.00	438.46
398.00	429.88
399.00	411.93
400.00	408.03
401.00	404.91
402.00	415.06
403.00	403.35
404.00	418.96
405.00	415.06
406.00	414.27
407.00	401.01
408.00	372.93
409.00	386.19
410.00	371.36
411.00	400.23
412.00	422.08
413.00	421.30
414.00	423.64
415.00	406.47
416.00	443.14
417.00	444.70
418.00	439.24
419.00	415.06
420.00	401.01
421.00	414.27
422.00	425.98
423.00	421.30
424.00	441.58
425.00	452.50
426.00	454.84
427.00	438.46
428.00	408.81
429.00	436.12
430.00	431.44
431.00	453.28
432.00	432.22
433.00	417.40
434.00	428.32
435.00	399.45
436.00	397.89
437.00	370.58
438.00	401.79
439.00	409.59
440.00	416.62
441.00	433.00
442.00	443.92
443.00	459.53
444.00	433.00
445.00	426.76
446.00	410.37
447.00	434.56
448.00	429.10
449.00	432.22
450.00	430.66
451.00	416.62
452.00	411.15
453.00	397.89
454.00	407.25
455.00	411.15
456.00	435.34
457.00	429.88
458.00	429.10
459.00	403.35
460.00	422.86
461.00	435.34
462.00	465.77
463.00	452.50
464.00	446.26
465.00	422.86
466.00	426.76
467.00	418.96
468.00	425.98
469.00	416.62
470.00	422.86
471.00	405.69
472.00	417.40
473.00	423.64
474.00	412.71
475.00	397.11
476.00	392.43
477.00	412.71
478.00	436.12
479.00	418.18
480.00	423.64
481.00	422.08
482.00	433.00
483.00	428.32
484.00	413.49
485.00	409.59
486.00	440.02
487.00	460.31
488.00	474.35
489.00	450.16
490.00	430.66
491.00	436.90
492.00	438.46
493.00	456.40
494.00	435.34
495.00	437.68
496.00	401.01
497.00	401.79
498.00	385.41
499.00	436.12
500.00	450.16
501.00	436.90
502.00	409.59
503.00	395.55
504.00	435.34
505.00	449.38
506.00	470.45
507.00	449.38
508.00	451.72
509.00	445.48
510.00	454.06
511.00	439.24
512.00	422.86
513.00	408.03
514.00	420.52
515.00	430.66
516.00	440.02
517.00	447.82
518.00	458.74
519.00	435.34
520.00	422.08
521.00	402.57
522.00	422.08
523.00	441.58
524.00	429.88
525.00	428.32
526.00	401.01
527.00	427.54
528.00	438.46
529.00	454.84
530.00	440.02
531.00	437.68
532.00	416.62
533.00	425.20
534.00	435.34
535.00	465.77
536.00	465.77
537.00	461.09
538.00	439.24
539.00	436.12
540.00	427.54
541.00	410.37
542.00	423.64
543.00	419.74
544.00	434.56
545.00	398.67
546.00	403.35
547.00	418.18
548.00	461.09
549.00	464.21
550.00	483.71
551.00	477.47
552.00	472.79
553.00	423.64
554.00	383.07
555.00	393.99
556.00	409.59
557.00	456.40
558.00	436.90
559.00	426.76
560.00	401.01
561.00	400.23
562.00	415.06
563.00	420.52
564.00	436.12
565.00	418.96
566.00	413.49
567.00	418.18
568.00	418.96
569.00	427.54
570.00	426.76
571.00	447.82
572.00	460.31
573.00	457.18
574.00	458.75
575.00	443.92
576.00	455.62
577.00	443.14
578.00	443.14
579.00	428.32
580.00	425.98
581.00	429.88
582.00	409.59
583.00	397.11
584.00	384.63
585.00	428.32
586.00	424.42
587.00	431.44
588.00	407.25
589.00	418.18
590.00	423.64
591.00	431.44
592.00	433.00
593.00	440.02
594.00	442.36
595.00	447.04
596.00	447.04
597.00	447.82
598.00	461.87
599.00	463.43
600.00	447.04
601.00	423.64
602.00	411.93
603.00	397.11
604.00	386.19
605.00	388.53
606.00	402.57
607.00	443.92
608.00	437.68
609.00	416.62
610.00	397.89
611.00	397.89
612.00	417.40
613.00	404.13
614.00	398.67
615.00	393.99
616.00	411.93
617.00	422.86
618.00	419.74
619.00	421.30
620.00	425.98
621.00	437.68
622.00	428.32
623.00	388.53
624.00	392.43
625.00	399.45
626.00	438.46
627.00	420.52
628.00	423.64
629.00	438.46
630.00	433.00
631.00	413.49
632.00	405.69
633.00	413.49
634.00	430.66
635.00	394.77
636.00	433.78
637.00	416.62
638.00	447.04
639.00	426.76
640.00	433.00
641.00	452.50
642.00	440.02
643.00	436.12
644.00	388.53
645.00	369.02
646.00	377.61
647.00	399.45
648.00	418.96
649.00	416.62
650.00	425.98
651.00	429.88
652.00	447.04
653.00	435.34
654.00	473.57
655.00	457.96
656.00	461.09
657.00	439.24
658.00	443.14
659.00	430.66
660.00	415.84
661.00	410.37
662.00	432.22
663.00	417.40
664.00	418.18
665.00	407.25
666.00	436.12
667.00	439.24
668.00	448.60
669.00	446.26
670.00	447.04
671.00	434.56
672.00	434.56
673.00	436.12
674.00	420.52
675.00	393.99
676.00	379.17
677.00	425.98
678.00	433.00
679.00	478.25
680.00	463.43
681.00	475.91
682.00	455.62
683.00	425.20
684.00	421.30
685.00	413.49
686.00	430.66
687.00	418.96
688.00	429.10
689.00	456.40
690.00	481.37
691.00	464.21
692.00	454.84
693.00	429.88
694.00	442.36
695.00	409.59
696.00	415.06
697.00	404.91
698.00	418.96
699.00	421.30
700.00	415.06
701.00	397.89
702.00	388.53
703.00	382.29
704.00	387.75
705.00	405.69
706.00	429.88
707.00	468.89
708.00	468.11
709.00	443.14
710.00	411.15
711.00	418.18
712.00	436.12
713.00	436.12
714.00	426.76
715.00	420.52
716.00	444.70
717.00	468.89
718.00	519.60
719.00	497.75
720.00	486.05
721.00	450.16
722.00	432.22
723.00	440.80
724.00	411.93
725.00	438.46
726.00	401.01
727.00	413.49
728.00	411.15
729.00	434.56
730.00	443.92
731.00	461.87
732.00	467.33
733.00	479.81
734.00	477.47
735.00	512.58
736.00	528.96
737.00	541.44
738.00	514.92
739.00	475.91
740.00	435.34
741.00	436.12
742.00	454.06
743.00	479.03
744.00	481.37
745.00	464.21
746.00	461.09
747.00	447.82
748.00	454.06
749.00	442.36
750.00	443.14
751.00	459.53
752.00	461.09
753.00	467.33
754.00	452.50
755.00	458.74
756.00	421.30
757.00	436.90
758.00	453.28
759.00	493.85
760.00	492.29
761.00	463.43
762.00	461.87
763.00	446.26
764.00	462.65
765.00	456.40
766.00	461.87
767.00	461.09
768.00	447.04
769.00	439.24
770.00	422.08
771.00	453.28
772.00	464.99
773.00	504.00
774.00	476.69
775.00	454.84
776.00	407.25
777.00	399.45
778.00	422.86
779.00	475.91
780.00	515.70
781.00	543.78
782.00	578.11
783.00	632.72
784.00	594.50
785.00	539.88
786.00	440.80
787.00	422.08
788.00	391.65
789.00	401.79
790.00	408.03
791.00	420.52
792.00	429.10
793.00	422.08
794.00	423.64
795.00	405.69
796.00	443.92
797.00	448.60
798.00	485.27
799.00	482.15
800.00	504.78
801.00	481.37
802.00	494.63
803.00	485.27
804.00	493.07
805.00	453.28
806.00	451.72
807.00	443.92
808.00	483.71
809.00	462.65
810.00	463.43
811.00	433.78
812.00	413.49
813.00	405.69
814.00	408.81
815.00	436.90
816.00	436.90
817.00	402.57
818.00	382.29
819.00	408.81
820.00	442.36
821.00	485.27
822.00	495.41
823.00	514.14
824.00	504.00
825.00	487.61
826.00	505.56
827.00	496.19
828.00	508.68
829.00	469.67
830.00	508.68
831.00	496.19
832.00	489.17
833.00	482.93
834.00	459.53
835.00	485.27
836.00	470.45
837.00	502.43
838.00	477.47
839.00	452.50
840.00	422.86
841.00	428.32
842.00	445.48
843.00	450.94
844.00	467.33
845.00	465.77
846.00	450.94
847.00	446.26
848.00	441.58
849.00	469.67
850.00	438.46
851.00	430.66
852.00	410.37
853.00	422.08
854.00	401.01
855.00	404.91
856.00	402.57
857.00	413.49
858.00	421.30
859.00	425.98
860.00	437.68
861.00	422.86
862.00	422.08
863.00	413.49
864.00	444.70
865.00	445.48
866.00	440.02
867.00	415.06
868.00	422.86
869.00	429.88
870.00	426.76
871.00	432.22
872.00	449.38
873.00	465.77
874.00	453.28
875.00	450.16
876.00	451.72
877.00	445.48
878.00	455.62
879.00	436.90
880.00	458.75
881.00	440.80
882.00	454.06
883.00	464.21
884.00	468.89
885.00	480.59
886.00	446.26
887.00	449.38
888.00	450.16
889.00	468.11
890.00	458.75
891.00	432.22
892.00	436.90
893.00	433.00
894.00	426.76
895.00	425.98
896.00	429.88
897.00	459.53
898.00	443.14
899.00	454.84
900.00	435.34
901.00	464.99
902.00	486.83
903.00	569.53
904.00	667.83
905.00	779.40
906.00	834.79
907.00	785.64
908.00	699.82
909.00	954.94
910.00	1025.93
911.00	1132.82
912.00	914.37
913.00	901.11
914.00	823.09
915.00	727.91
916.00	615.56
917.00	557.05
918.00	499.31
919.00	492.29
920.00	444.70
921.00	430.66
922.00	448.60
923.00	479.03
924.00	485.27
925.00	469.67
926.00	461.87
927.00	447.82
928.00	437.68
929.00	456.40
930.00	472.79
931.00	489.17
932.00	469.67
933.00	450.94
934.00	433.78
935.00	465.77
936.00	476.69
937.00	485.27
938.00	450.16
939.00	448.60
940.00	461.09
941.00	453.28
942.00	484.49
943.00	617.12
944.00	1056.36
945.00	1874.77
946.00	2864.04
947.00	3607.55
948.00	3680.88
949.00	3206.53
950.00	2408.41
951.00	1661.00
952.00	1075.87
953.00	746.63
954.00	587.47
955.00	526.62
956.00	484.49
957.00	468.11
958.00	456.40
959.00	436.12
960.00	422.86
961.00	411.93
962.00	432.22
963.00	440.80
964.00	426.76
965.00	454.06
966.00	471.23
967.00	513.36
968.00	493.07
969.00	470.45
970.00	444.70
971.00	423.64
972.00	440.80
973.00	438.46
974.00	450.16
975.00	443.92
976.00	460.31
977.00	462.65
978.00	461.09
979.00	463.43
980.00	459.53
981.00	467.33
982.00	444.70
983.00	439.24
984.00	411.93
985.00	410.37
986.00	408.03
987.00	418.96
988.00	406.47
989.00	432.22
990.00	430.66
991.00	457.18
992.00	447.04
993.00	448.60
994.00	427.54
995.00	406.47
996.00	426.76
997.00	440.02
998.00	415.84
999.00	418.96
1000.00	421.30
1001.00	446.26
1002.00	433.00
1003.00	439.24
1004.00	451.72
1005.00	464.21
1006.00	443.92
1007.00	440.02
1008.00	415.06
1009.00	423.64
1010.00	436.12
1011.00	454.84
1012.00	457.96
1013.00	442.36
1014.00	412.71
1015.00	404.91
1016.00	415.06
1017.00	435.34
1018.00	460.31
1019.00	464.99
1020.00	436.90
1021.00	426.76
1022.00	397.11
1023.00	446.26
1024.00	434.56
1025.00	433.00
1026.00	404.13
1027.00	423.64
1028.00	457.18
1029.00	456.40
1030.00	447.04
1031.00	451.72
1032.00	479.81
1033.00	453.28
1034.00	421.30
1035.00	395.55
1036.00	435.34
1037.00	457.96
1038.00	459.53
1039.00	441.58
1040.00	461.87
1041.00	470.45
1042.00	469.67
1043.00	443.92
1044.00	441.58
1045.00	518.82
1046.00	532.08
1047.00	534.42
1048.00	455.62
1049.00	429.88
1050.00	428.32
1051.00	452.50
1052.00	473.57
1053.00	490.73
1054.00	475.91
1055.00	473.57
1056.00	443.14
1057.00	425.20
1058.00	411.15
1059.00	403.35
1060.00	411.15
1061.00	421.30
1062.00	434.56
1063.00	446.26
1064.00	447.04
1065.00	443.92
1066.00	432.22
1067.00	436.90
1068.00	431.44
1069.00	459.53
1070.00	433.78
1071.00	457.18
1072.00	422.08
1073.00	447.04
1074.00	453.28
1075.00	473.57
1076.00	475.91
1077.00	463.43
1078.00	448.60
1079.00	472.01
1080.00	462.65
1081.00	466.55
1082.00	444.70
1083.00	456.40
1084.00	455.62
1085.00	415.06
1086.00	417.40
1087.00	404.13
1088.00	437.68
1089.00	440.80
1090.00	459.53
1091.00	465.77
1092.00	476.69
1093.00	471.23
1094.00	466.55
1095.00	443.92
1096.00	461.87
1097.00	469.67
1098.00	513.36
1099.00	534.42
1100.00	556.27
1101.00	553.15
1102.00	561.73
1103.00	564.07
1104.00	530.52
1105.00	471.23
1106.00	460.31
1107.00	482.15
1108.00	500.09
1109.00	486.83
1110.00	450.16
1111.00	425.20
1112.00	398.67
1113.00	406.47
1114.00	443.14
1115.00	470.45
1116.00	461.87
1117.00	457.18
1118.00	469.67
1119.00	489.17
1120.00	525.84
1121.00	514.14
1122.00	553.93
1123.00	533.64
1124.00	559.39
1125.00	518.82
1126.00	486.05
1127.00	429.88
1128.00	422.86
1129.00	418.96
1130.00	457.18
1131.00	465.77
1132.00	515.70
1133.00	490.73
1134.00	485.27
1135.00	451.72
1136.00	470.45
1137.00	496.19
1138.00	498.53
1139.00	507.12
1140.00	500.09
1141.00	493.07
1142.00	481.37
1143.00	475.91
1144.00	475.91
1145.00	474.35
1146.00	482.93
1147.00	472.79
1148.00	463.43
1149.00	467.33
1150.00	498.53
1151.00	507.12
1152.00	518.04
1153.00	517.26
1154.00	546.91
1155.00	567.97
1156.00	645.21
1157.00	674.85
1158.00	716.98
1159.00	681.88
1160.00	662.37
1161.00	616.34
1162.00	600.74
1163.00	618.68
1164.00	753.65
1165.00	1032.18
1166.00	1394.18
1167.00	1651.64
1168.00	1685.19
1169.00	1533.05
1170.00	1297.44
1171.00	1050.12
1172.00	851.17
1173.00	696.70
1174.00	604.64
1175.00	581.23
1176.00	567.97
1177.00	579.67
1178.00	573.43
1179.00	554.71
1180.00	560.17
1181.00	571.09
1182.00	624.92
1183.00	634.29
1184.00	626.48
1185.00	601.52
1186.00	640.53
1187.00	648.33
1188.00	672.51
1189.00	682.66
1190.00	762.23
1191.00	821.53
1192.00	886.28
1193.00	908.91
1194.00	905.01
1195.00	883.94
1196.00	823.87
1197.00	824.65
1198.00	856.64
1199.00	990.05
1200.00	1171.83
1201.00	1359.07
1202.00	1504.96
1203.00	1495.60
1204.00	1394.18
1205.00	1247.51
1206.00	1128.14
1207.00	1089.13
1208.00	1083.67
1209.00	1132.82
1210.00	1137.50
1211.00	1196.79
1212.00	1299.00
1213.00	1485.46
1214.00	1675.04
1215.00	1983.99
1216.00	2511.39
1217.00	5821.69
1218.00	21213.84
1219.00	41973.61
1220.00	59880.27
1221.00	65535.00
1222.00	65535.00
1223.00	65535.00
1224.00	65535.00
1225.00	65331.37
1226.00	56177.54
1227.00	40502.97
1228.00	21879.33
1229.00	10728.24
1230.00	5479.97
1231.00	3155.04
1232.00	2196.98
1233.00	1845.12
1234.00	1677.38
1235.00	1640.72
1236.00	2058.89
1237.00	3737.84
1238.00	7077.00
1239.00	11577.07
1240.00	15239.23
1241.00	16232.40
1242.00	14490.26
1243.00	11148.75
1244.00	7691.78
1245.00	4761.43
1246.00	2751.69
1247.00	1700.01
1248.00	1171.05
1249.00	959.62
1250.00	904.23
1251.00	955.72
1252.00	1057.92
1253.00	1160.13
1254.00	1224.88
1255.00	1226.44
1256.00	1164.81
1257.00	1110.97
1258.00	1011.89
1259.00	952.60
1260.00	901.11
1261.00	866.78
1262.00	862.88
1263.00	858.20
1264.00	853.52
1265.00	836.35
1266.00	795.00
1267.00	776.28
1268.00	747.41
1269.00	738.83
1270.00	738.83
1271.00	767.70
1272.00	791.88
1273.00	836.35
1274.00	872.24
1275.00	1216.30
1276.00	2977.94
1277.00	7282.19
1278.00	14764.10
1279.00	22996.54
1280.00	28518.65
1281.00	28753.48
1282.00	24533.50
1283.00	18051.77
1284.00	11745.59
1285.00	6772.73
1286.00	3786.99
1287.00	2167.34
1288.00	1416.80
1289.00	1001.75
1290.00	875.36
1291.00	810.61
1292.00	873.80
1293.00	923.73
1294.00	971.32
1295.00	1143.74
1296.00	1745.26
1297.00	2950.64
1298.00	4667.81
1299.00	6104.12
1300.00	6749.32
1301.00	6240.65
1302.00	5089.10
1303.00	3669.18
1304.00	2479.41
1305.00	1634.47
1306.00	1191.33
1307.00	973.66
1308.00	883.16
1309.00	841.03
1310.00	797.34
1311.00	749.75
1312.00	680.32
1313.00	633.50
1314.00	605.42
1315.00	586.69
1316.00	588.25
1317.00	580.45
1318.00	586.69
1319.00	557.83
1320.00	556.27
1321.00	560.17
1322.00	557.83
1323.00	553.93
1324.00	554.71
1325.00	560.95
1326.00	555.49
1327.00	568.75
1328.00	597.62
1329.00	642.09
1330.00	979.90
1331.00	1905.20
1332.00	3574.78
1333.00	5547.85
1334.00	7082.46
1335.00	7414.04
1336.00	6635.42
1337.00	5171.02
1338.00	3686.34
1339.00	2410.75
1340.00	1533.05
1341.00	1060.26
1342.00	826.21
1343.00	741.17
1344.00	677.20
1345.00	670.95
1346.00	639.75
1347.00	636.63
1348.00	614.78
1349.00	616.34
1350.00	648.33
1351.00	660.03
1352.00	675.63
1353.00	658.47
1354.00	683.44
1355.00	748.19
1356.00	795.00
