SpectraSuite Data File
++++++++++++++++++++++++++++++++++++
Date: Thu Nov 16 13:55:18 EST 2017
User: cheriyan
Dark Spectrum Present: No
Reference Spectrum Present: No
Number of Sampled Component Spectra: 1
Spectrometers: USB2+H05261
Integration Time (usec): 100000 (USB2+H05261)
Spectra Averaged: 1 (USB2+H05261)
Boxcar Smoothing: 1 (USB2+H05261)
Correct for Electrical Dark: No (USB2+H05261)
Strobe/Lamp Enabled: No (USB2+H05261)
Correct for Detector Non-linearity: No (USB2+H05261)
Correct for Stray Light: No (USB2+H05261)
Number of Pixels in Processed Spectrum: 2048
>>>>>Begin Processed Spectral Data<<<<<
0.00	332.36
1.00	332.36
2.00	320.65
3.00	301.15
4.00	300.37
5.00	259.80
6.00	255.12
7.00	214.55
8.00	227.03
9.00	223.13
10.00	245.76
11.00	259.02
12.00	222.35
13.00	208.31
14.00	189.58
15.00	216.11
16.00	250.44
17.00	260.58
18.00	286.33
19.00	286.33
20.00	323.77
21.00	309.73
22.00	298.03
23.00	297.25
24.00	318.31
25.00	333.14
26.00	346.40
27.00	388.53
28.00	381.51
29.00	377.61
30.00	373.71
31.00	358.10
32.00	369.02
33.00	369.80
34.00	393.99
35.00	397.11
36.00	371.36
37.00	405.69
38.00	414.27
39.00	448.60
40.00	433.00
41.00	450.16
42.00	438.46
43.00	444.70
44.00	413.49
45.00	410.37
46.00	415.84
47.00	436.90
48.00	444.70
49.00	429.88
50.00	420.52
51.00	415.84
52.00	443.14
53.00	427.54
54.00	443.14
55.00	404.91
56.00	410.37
57.00	407.25
58.00	442.36
59.00	443.92
60.00	407.25
61.00	390.09
62.00	387.75
63.00	411.15
64.00	432.22
65.00	433.00
66.00	408.81
67.00	405.69
68.00	396.33
69.00	409.59
70.00	390.87
71.00	386.97
72.00	379.95
73.00	380.73
74.00	395.55
75.00	376.83
76.00	363.56
77.00	390.09
78.00	426.76
79.00	432.22
80.00	427.54
81.00	408.03
82.00	394.77
83.00	402.57
84.00	417.40
85.00	441.58
86.00	404.91
87.00	424.42
88.00	410.37
89.00	414.27
90.00	409.59
91.00	444.70
92.00	454.06
93.00	445.48
94.00	406.47
95.00	394.77
96.00	404.13
97.00	443.14
98.00	435.34
99.00	410.37
100.00	373.71
101.00	401.01
102.00	425.20
103.00	440.80
104.00	423.64
105.00	421.30
106.00	416.62
107.00	422.08
108.00	433.00
109.00	442.36
110.00	419.74
111.00	395.55
112.00	375.27
113.00	385.41
114.00	384.63
115.00	384.63
116.00	414.27
117.00	434.56
118.00	447.04
119.00	428.32
120.00	407.25
121.00	392.43
122.00	397.11
123.00	425.98
124.00	465.77
125.00	444.70
126.00	422.86
127.00	379.95
128.00	398.67
129.00	393.21
130.00	414.27
131.00	407.25
132.00	392.43
133.00	373.71
134.00	369.02
135.00	367.46
136.00	371.36
137.00	372.15
138.00	371.36
139.00	371.36
140.00	397.11
141.00	399.45
142.00	411.93
143.00	424.42
144.00	478.25
145.00	513.36
146.00	500.09
147.00	489.95
148.00	443.92
149.00	438.46
150.00	412.71
151.00	407.25
152.00	390.87
153.00	389.31
154.00	410.37
155.00	401.79
156.00	390.09
157.00	379.17
158.00	418.18
159.00	431.44
160.00	443.92
161.00	417.40
162.00	404.13
163.00	396.33
164.00	393.21
165.00	399.45
166.00	386.97
167.00	398.67
168.00	400.23
169.00	418.18
170.00	433.78
171.00	422.86
172.00	415.06
173.00	378.39
174.00	393.99
175.00	387.75
176.00	401.01
177.00	388.53
178.00	393.99
179.00	410.37
180.00	427.54
181.00	425.20
182.00	422.86
183.00	404.13
184.00	403.35
185.00	393.99
186.00	401.01
187.00	399.45
188.00	414.27
189.00	436.12
190.00	412.71
191.00	398.67
192.00	369.80
193.00	441.58
194.00	474.35
195.00	516.48
196.00	511.80
197.00	496.97
198.00	470.45
199.00	450.94
200.00	439.24
201.00	432.22
202.00	423.64
203.00	400.23
204.00	410.37
205.00	411.15
206.00	427.54
207.00	424.42
208.00	404.91
209.00	413.49
210.00	415.06
211.00	435.34
212.00	436.90
213.00	433.78
214.00	414.27
215.00	407.25
216.00	413.49
217.00	433.00
218.00	438.46
219.00	408.81
220.00	373.71
221.00	368.24
222.00	415.06
223.00	422.86
224.00	400.23
225.00	378.39
226.00	396.33
227.00	405.69
228.00	401.01
229.00	378.39
230.00	358.88
231.00	374.49
232.00	372.93
233.00	400.23
234.00	376.83
235.00	390.09
236.00	392.43
237.00	419.74
238.00	428.32
239.00	408.03
240.00	383.85
241.00	392.43
242.00	411.15
243.00	415.84
244.00	403.35
245.00	418.18
246.00	430.66
247.00	465.77
248.00	448.60
249.00	456.40
250.00	422.08
251.00	425.20
252.00	404.91
253.00	435.34
254.00	454.84
255.00	489.95
256.00	475.13
257.00	477.47
258.00	455.62
259.00	449.38
260.00	424.42
261.00	415.06
262.00	398.67
263.00	401.79
264.00	396.33
265.00	434.56
266.00	469.67
267.00	532.86
268.00	556.27
269.00	560.17
270.00	543.78
271.00	544.56
272.00	580.45
273.00	608.54
274.00	632.72
275.00	601.52
276.00	599.96
277.00	564.85
278.00	566.41
279.00	528.96
280.00	497.75
281.00	457.18
282.00	428.32
283.00	411.15
284.00	394.77
285.00	396.33
286.00	416.62
287.00	424.42
288.00	392.43
289.00	371.36
290.00	357.32
291.00	371.36
292.00	383.07
293.00	385.41
294.00	393.99
295.00	395.55
296.00	428.32
297.00	439.24
298.00	451.72
299.00	436.90
300.00	440.80
301.00	434.56
302.00	411.93
303.00	413.49
304.00	399.45
305.00	436.12
306.00	468.11
307.00	536.76
308.00	607.76
309.00	610.88
310.00	611.66
311.00	556.27
312.00	533.64
313.00	472.01
314.00	464.99
315.00	436.12
316.00	429.10
317.00	408.81
318.00	424.42
319.00	428.32
320.00	422.08
321.00	419.74
322.00	422.08
323.00	438.46
324.00	422.08
325.00	426.76
326.00	429.88
327.00	422.08
328.00	416.62
329.00	397.11
330.00	418.96
331.00	410.37
332.00	418.96
333.00	393.99
334.00	387.75
335.00	392.43
336.00	391.65
337.00	384.63
338.00	354.20
339.00	369.80
340.00	389.31
341.00	426.76
342.00	417.40
343.00	418.96
344.00	429.10
345.00	464.21
346.00	550.81
347.00	610.10
348.00	724.79
349.00	736.49
350.00	731.81
351.00	642.87
352.00	582.01
353.00	551.59
354.00	539.10
355.00	518.82
356.00	479.81
357.00	490.73
358.00	476.69
359.00	475.91
360.00	450.94
361.00	457.96
362.00	454.84
363.00	438.46
364.00	407.25
365.00	401.01
366.00	383.85
367.00	423.64
368.00	464.99
369.00	486.83
370.00	471.23
371.00	440.02
372.00	425.20
373.00	404.91
374.00	387.75
375.00	386.19
376.00	415.84
377.00	422.86
378.00	433.78
379.00	423.64
380.00	432.22
381.00	428.32
382.00	420.52
383.00	417.40
384.00	407.25
385.00	411.93
386.00	416.62
387.00	422.86
388.00	436.12
389.00	448.60
390.00	469.67
391.00	464.99
392.00	457.18
393.00	457.96
394.00	449.38
395.00	442.36
396.00	428.32
397.00	448.60
398.00	452.50
399.00	448.60
400.00	410.37
401.00	413.49
402.00	408.81
403.00	419.74
404.00	394.77
405.00	413.49
406.00	428.32
407.00	437.68
408.00	370.58
409.00	338.60
410.00	319.87
411.00	371.36
412.00	401.79
413.00	420.52
414.00	433.00
415.00	442.36
416.00	440.80
417.00	422.86
418.00	410.37
419.00	390.09
420.00	377.61
421.00	365.90
422.00	389.31
423.00	412.71
424.00	431.44
425.00	425.20
426.00	412.71
427.00	419.74
428.00	429.88
429.00	454.06
430.00	411.93
431.00	415.06
432.00	383.07
433.00	387.75
434.00	366.68
435.00	379.17
436.00	372.15
437.00	377.61
438.00	382.29
439.00	425.20
440.00	461.87
441.00	475.13
442.00	491.51
443.00	471.23
444.00	482.15
445.00	472.79
446.00	467.33
447.00	456.40
448.00	407.25
449.00	408.81
450.00	402.57
451.00	441.58
452.00	443.92
453.00	431.44
454.00	403.35
455.00	381.51
456.00	420.52
457.00	440.80
458.00	450.94
459.00	395.55
460.00	407.25
461.00	411.15
462.00	447.04
463.00	435.34
464.00	424.42
465.00	424.42
466.00	433.00
467.00	452.50
468.00	429.88
469.00	447.04
470.00	426.76
471.00	414.27
472.00	375.27
473.00	401.79
474.00	425.98
475.00	430.66
476.00	391.65
477.00	389.31
478.00	396.33
479.00	422.08
480.00	421.30
481.00	435.34
482.00	418.96
483.00	414.27
484.00	410.37
485.00	431.44
486.00	436.12
487.00	415.06
488.00	436.90
489.00	460.31
490.00	452.50
491.00	418.18
492.00	397.11
493.00	427.54
494.00	444.70
495.00	447.04
496.00	429.88
497.00	440.02
498.00	440.80
499.00	443.14
500.00	417.40
501.00	432.22
502.00	447.04
503.00	439.24
504.00	408.03
505.00	383.07
506.00	412.71
507.00	421.30
508.00	430.66
509.00	421.30
510.00	433.78
511.00	443.14
512.00	408.81
513.00	392.43
514.00	388.53
515.00	423.64
516.00	435.34
517.00	441.58
518.00	425.20
519.00	404.91
520.00	397.11
521.00	421.30
522.00	440.80
523.00	433.78
524.00	408.81
525.00	404.13
526.00	410.37
527.00	435.34
528.00	425.20
529.00	407.25
530.00	376.05
531.00	390.87
532.00	414.27
533.00	439.24
534.00	470.45
535.00	466.55
536.00	443.14
537.00	402.57
538.00	398.67
539.00	438.46
540.00	461.87
541.00	454.84
542.00	445.48
543.00	458.75
544.00	485.27
545.00	425.98
546.00	379.95
547.00	351.86
548.00	399.45
549.00	415.06
550.00	424.42
551.00	435.34
552.00	440.80
553.00	436.90
554.00	420.52
555.00	448.60
556.00	475.91
557.00	476.69
558.00	449.38
559.00	415.84
560.00	397.89
561.00	380.73
562.00	398.67
563.00	413.49
564.00	413.49
565.00	393.99
566.00	415.84
567.00	425.20
568.00	423.64
569.00	384.63
570.00	390.09
571.00	418.18
572.00	440.80
573.00	435.34
574.00	443.92
575.00	465.77
576.00	475.91
577.00	443.92
578.00	428.32
579.00	408.81
580.00	413.49
581.00	407.25
582.00	412.71
583.00	422.86
584.00	413.49
585.00	422.08
586.00	440.80
587.00	453.28
588.00	468.11
589.00	455.62
590.00	450.94
591.00	431.44
592.00	414.27
593.00	421.30
594.00	424.42
595.00	438.46
596.00	444.70
597.00	438.46
598.00	425.20
599.00	401.79
600.00	438.46
601.00	432.22
602.00	456.40
603.00	454.84
604.00	461.09
605.00	426.76
606.00	398.67
607.00	397.11
608.00	415.84
609.00	420.52
610.00	436.90
611.00	424.42
612.00	404.91
613.00	410.37
614.00	432.22
615.00	437.68
616.00	424.42
617.00	403.35
618.00	418.96
619.00	433.78
620.00	461.09
621.00	467.33
622.00	464.21
623.00	453.28
624.00	447.82
625.00	434.56
626.00	433.00
627.00	426.76
628.00	439.24
629.00	458.74
630.00	471.23
631.00	457.96
632.00	427.54
633.00	404.13
634.00	401.01
635.00	392.43
636.00	411.15
637.00	404.91
638.00	404.91
639.00	422.08
640.00	430.66
641.00	445.48
642.00	419.74
643.00	440.02
644.00	430.66
645.00	418.96
646.00	389.31
647.00	416.62
648.00	437.68
649.00	443.14
650.00	449.38
651.00	429.10
652.00	447.04
653.00	425.98
654.00	461.09
655.00	453.28
656.00	479.03
657.00	431.44
658.00	425.20
659.00	396.33
660.00	404.91
661.00	418.18
662.00	443.92
663.00	478.25
664.00	461.09
665.00	444.70
666.00	426.76
667.00	421.30
668.00	415.84
669.00	420.52
670.00	437.68
671.00	437.68
672.00	429.88
673.00	429.10
674.00	414.27
675.00	430.66
676.00	420.52
677.00	431.44
678.00	422.86
679.00	442.36
680.00	479.03
681.00	471.23
682.00	457.18
683.00	408.03
684.00	425.20
685.00	422.86
686.00	433.78
687.00	422.08
688.00	418.18
689.00	421.30
690.00	411.93
691.00	418.18
692.00	446.26
693.00	426.76
694.00	421.30
695.00	397.11
696.00	435.34
697.00	411.15
698.00	410.37
699.00	392.43
700.00	422.86
701.00	425.98
702.00	429.10
703.00	436.12
704.00	433.00
705.00	406.47
706.00	395.55
707.00	399.45
708.00	437.68
709.00	448.60
710.00	448.60
711.00	445.48
712.00	416.62
713.00	384.63
714.00	358.10
715.00	367.46
716.00	377.61
717.00	414.27
718.00	470.45
719.00	487.61
720.00	471.23
721.00	445.48
722.00	457.96
723.00	464.99
724.00	436.12
725.00	415.84
726.00	412.71
727.00	436.90
728.00	440.02
729.00	449.38
730.00	445.48
731.00	447.82
732.00	449.38
733.00	450.94
734.00	469.67
735.00	473.57
736.00	511.02
737.00	537.54
738.00	532.86
739.00	498.53
740.00	444.70
741.00	437.68
742.00	436.12
743.00	464.21
744.00	486.05
745.00	468.11
746.00	441.58
747.00	421.30
748.00	416.62
749.00	398.67
750.00	403.35
751.00	434.56
752.00	450.94
753.00	433.78
754.00	425.20
755.00	451.72
756.00	469.67
757.00	475.91
758.00	450.94
759.00	446.26
760.00	436.90
761.00	475.91
762.00	469.67
763.00	465.77
764.00	461.09
765.00	468.11
766.00	460.31
767.00	428.32
768.00	433.00
769.00	449.38
770.00	457.96
771.00	446.26
772.00	429.88
773.00	445.48
774.00	449.38
775.00	454.84
776.00	464.21
777.00	456.40
778.00	464.99
779.00	444.70
780.00	493.85
781.00	548.47
782.00	597.62
783.00	667.83
784.00	649.11
785.00	632.72
786.00	500.09
787.00	454.84
788.00	401.01
789.00	428.32
790.00	425.20
791.00	440.80
792.00	439.24
793.00	455.62
794.00	475.91
795.00	469.67
796.00	461.87
797.00	478.25
798.00	491.51
799.00	531.30
800.00	512.58
801.00	507.90
802.00	466.55
803.00	443.14
804.00	432.22
805.00	414.27
806.00	426.76
807.00	436.12
808.00	467.33
809.00	478.25
810.00	463.43
811.00	449.38
812.00	435.34
813.00	458.74
814.00	455.62
815.00	461.87
816.00	468.89
817.00	498.53
818.00	506.34
819.00	464.99
820.00	425.98
821.00	425.98
822.00	457.96
823.00	488.39
824.00	494.63
825.00	496.19
826.00	499.31
827.00	508.68
828.00	492.29
829.00	474.35
830.00	467.33
831.00	488.39
832.00	528.18
833.00	511.80
834.00	511.80
835.00	470.45
836.00	471.23
837.00	452.50
838.00	438.46
839.00	422.08
840.00	426.76
841.00	436.90
842.00	430.66
843.00	434.56
844.00	441.58
845.00	459.53
846.00	459.53
847.00	444.70
848.00	425.98
849.00	434.56
850.00	421.30
851.00	449.38
852.00	420.52
853.00	447.04
854.00	433.78
855.00	444.70
856.00	451.72
857.00	454.84
858.00	470.45
859.00	461.09
860.00	454.06
861.00	438.46
862.00	450.94
863.00	472.79
864.00	473.57
865.00	478.25
866.00	448.60
867.00	450.94
868.00	414.27
869.00	426.76
870.00	427.54
871.00	451.72
872.00	455.62
873.00	446.26
874.00	443.14
875.00	450.16
876.00	443.92
877.00	436.12
878.00	425.98
879.00	428.32
880.00	429.88
881.00	449.38
882.00	454.06
883.00	476.69
884.00	464.99
885.00	472.79
886.00	469.67
887.00	489.17
888.00	482.93
889.00	479.03
890.00	442.36
891.00	444.70
892.00	430.66
893.00	435.34
894.00	443.92
895.00	452.50
896.00	467.33
897.00	468.11
898.00	462.65
899.00	461.09
900.00	466.55
901.00	455.62
902.00	476.69
903.00	528.96
904.00	649.89
905.00	780.18
906.00	834.01
907.00	816.07
908.00	741.17
909.00	1009.55
910.00	1027.50
911.00	1074.31
912.00	839.47
913.00	860.54
914.00	838.69
915.00	734.93
916.00	614.78
917.00	514.14
918.00	492.29
919.00	450.16
920.00	436.12
921.00	410.37
922.00	457.96
923.00	479.81
924.00	505.56
925.00	471.23
926.00	456.40
927.00	411.15
928.00	419.74
929.00	433.00
930.00	443.14
931.00	463.43
932.00	436.12
933.00	427.54
934.00	407.25
935.00	423.64
936.00	472.79
937.00	478.25
938.00	468.89
939.00	433.00
940.00	452.50
941.00	444.70
942.00	472.79
943.00	624.14
944.00	1039.98
945.00	1856.82
946.00	2886.66
947.00	3663.72
948.00	3749.54
949.00	3187.81
950.00	2359.26
951.00	1597.03
952.00	1038.42
953.00	709.96
954.00	552.37
955.00	474.35
956.00	448.60
957.00	453.28
958.00	466.55
959.00	461.87
960.00	467.33
961.00	457.96
962.00	451.72
963.00	438.46
964.00	440.80
965.00	472.01
966.00	469.67
967.00	476.69
968.00	462.65
969.00	456.40
970.00	457.18
971.00	442.36
972.00	419.74
973.00	405.69
974.00	419.74
975.00	441.58
976.00	423.64
977.00	408.81
978.00	432.22
979.00	457.18
980.00	447.04
981.00	422.86
982.00	437.68
983.00	463.43
984.00	449.38
985.00	418.96
986.00	409.59
987.00	418.96
988.00	418.96
989.00	413.49
990.00	431.44
991.00	427.54
992.00	440.80
993.00	435.34
994.00	468.11
995.00	464.21
996.00	454.84
997.00	428.32
998.00	434.56
999.00	449.38
1000.00	454.84
1001.00	448.60
1002.00	457.18
1003.00	454.06
1004.00	479.81
1005.00	460.31
1006.00	462.65
1007.00	456.40
1008.00	466.55
1009.00	466.55
1010.00	461.09
1011.00	455.62
1012.00	469.67
1013.00	455.62
1014.00	454.84
1015.00	438.46
1016.00	449.38
1017.00	438.46
1018.00	414.27
1019.00	409.59
1020.00	425.20
1021.00	460.31
1022.00	449.38
1023.00	445.48
1024.00	417.40
1025.00	411.15
1026.00	405.69
1027.00	443.92
1028.00	439.24
1029.00	428.32
1030.00	425.98
1031.00	446.26
1032.00	453.28
1033.00	420.52
1034.00	411.15
1035.00	429.88
1036.00	464.21
1037.00	471.23
1038.00	469.67
1039.00	452.50
1040.00	446.26
1041.00	458.75
1042.00	485.27
1043.00	530.52
1044.00	521.16
1045.00	546.91
1046.00	525.84
1047.00	524.28
1048.00	468.11
1049.00	453.28
1050.00	454.06
1051.00	472.01
1052.00	468.89
1053.00	473.57
1054.00	457.96
1055.00	462.65
1056.00	456.40
1057.00	464.21
1058.00	472.01
1059.00	440.02
1060.00	435.34
1061.00	411.93
1062.00	447.04
1063.00	465.77
1064.00	470.45
1065.00	465.77
1066.00	450.16
1067.00	462.65
1068.00	433.78
1069.00	436.12
1070.00	414.27
1071.00	409.59
1072.00	404.13
1073.00	426.76
1074.00	454.06
1075.00	439.24
1076.00	401.01
1077.00	390.87
1078.00	408.03
1079.00	443.92
1080.00	444.70
1081.00	432.22
1082.00	426.76
1083.00	433.78
1084.00	452.50
1085.00	429.88
1086.00	423.64
1087.00	424.42
1088.00	449.38
1089.00	466.55
1090.00	444.70
1091.00	433.78
1092.00	440.02
1093.00	443.14
1094.00	447.04
1095.00	447.04
1096.00	457.18
1097.00	457.18
1098.00	468.11
1099.00	534.42
1100.00	599.96
1101.00	599.96
1102.00	563.29
1103.00	528.96
1104.00	513.36
1105.00	498.53
1106.00	479.03
1107.00	452.50
1108.00	443.92
1109.00	436.12
1110.00	444.70
1111.00	418.96
1112.00	436.90
1113.00	447.04
1114.00	469.67
1115.00	460.31
1116.00	454.06
1117.00	461.09
1118.00	449.38
1119.00	468.11
1120.00	477.47
1121.00	486.05
1122.00	515.70
1123.00	518.04
1124.00	537.54
1125.00	479.03
1126.00	447.04
1127.00	420.52
1128.00	428.32
1129.00	470.45
1130.00	473.57
1131.00	500.09
1132.00	484.49
1133.00	478.25
1134.00	455.62
1135.00	457.18
1136.00	472.79
1137.00	493.07
1138.00	505.56
1139.00	535.20
1140.00	540.66
1141.00	537.54
1142.00	511.02
1143.00	477.47
1144.00	431.44
1145.00	401.79
1146.00	439.24
1147.00	464.99
1148.00	518.04
1149.00	511.80
1150.00	537.54
1151.00	525.84
1152.00	525.06
1153.00	522.72
1154.00	548.47
1155.00	599.18
1156.00	671.73
1157.00	716.20
1158.00	716.20
1159.00	681.88
1160.00	664.71
1161.00	660.03
1162.00	624.92
1163.00	647.55
1164.00	780.18
1165.00	1064.94
1166.00	1411.34
1167.00	1641.50
1168.00	1691.43
1169.00	1540.07
1170.00	1284.95
1171.00	1041.54
1172.00	842.59
1173.00	727.13
1174.00	644.43
1175.00	590.60
1176.00	609.32
1177.00	615.56
1178.00	620.24
1179.00	589.82
1180.00	606.20
1181.00	624.92
1182.00	644.43
1183.00	622.58
1184.00	600.74
1185.00	571.87
1186.00	557.83
1187.00	597.62
1188.00	634.29
1189.00	715.42
1190.00	753.65
1191.00	840.25
1192.00	873.80
1193.00	917.49
1194.00	869.90
1195.00	838.69
1196.00	809.83
1197.00	817.63
1198.00	872.24
1199.00	971.32
1200.00	1166.37
1201.00	1353.61
1202.00	1508.09
1203.00	1526.81
1204.00	1451.91
1205.00	1281.05
1206.00	1181.97
1207.00	1105.51
1208.00	1146.08
1209.00	1160.91
1210.00	1228.78
1211.00	1238.92
1212.00	1337.23
1213.00	1485.46
1214.00	1700.01
1215.00	1957.47
1216.00	2462.24
1217.00	5696.86
1218.00	21172.49
1219.00	41944.74
1220.00	59922.40
1221.00	65535.00
1222.00	65535.00
1223.00	65535.00
1224.00	65535.00
1225.00	65349.32
1226.00	56264.14
1227.00	40567.73
1228.00	21940.18
1229.00	10701.71
1230.00	5515.86
1231.00	3178.45
1232.00	2237.55
1233.00	1832.64
1234.00	1651.64
1235.00	1606.39
1236.00	2101.02
1237.00	3722.23
1238.00	7091.82
1239.00	11531.04
1240.00	15247.81
1241.00	16338.50
1242.00	14646.29
1243.00	11312.59
1244.00	7758.10
1245.00	4805.12
1246.00	2833.61
1247.00	1752.28
1248.00	1242.82
1249.00	1001.75
1250.00	964.30
1251.00	944.02
1252.00	1049.34
1253.00	1118.00
1254.00	1205.38
1255.00	1185.87
1256.00	1181.19
1257.00	1105.51
1258.00	1039.20
1259.00	949.48
1260.00	929.97
1261.00	920.61
1262.00	925.29
1263.00	898.77
1264.00	851.17
1265.00	807.48
1266.00	790.32
1267.00	763.01
1268.00	759.89
1269.00	731.81
1270.00	759.11
1271.00	787.20
1272.00	814.51
1273.00	817.63
1274.00	858.20
1275.00	1220.20
1276.00	2981.84
1277.00	7175.30
1278.00	14590.90
1279.00	22811.64
1280.00	28491.34
1281.00	28755.04
1282.00	24655.98
1283.00	18135.25
1284.00	11802.54
1285.00	6731.38
1286.00	3668.40
1287.00	2077.62
1288.00	1302.12
1289.00	969.76
1290.00	886.28
1291.00	884.72
1292.00	881.60
1293.00	878.48
1294.00	890.96
1295.00	1100.83
1296.00	1718.73
1297.00	2923.33
1298.00	4637.38
1299.00	6175.89
1300.00	6823.44
1301.00	6321.79
1302.00	5089.10
1303.00	3673.86
1304.00	2497.35
1305.00	1636.81
1306.00	1192.11
1307.00	942.46
1308.00	866.00
1309.00	819.97
1310.00	791.10
1311.00	718.54
1312.00	663.93
1313.00	617.12
1314.00	601.52
1315.00	603.08
1316.00	597.62
1317.00	596.06
1318.00	579.67
1319.00	570.31
1320.00	568.75
1321.00	551.59
1322.00	540.66
1323.00	530.52
1324.00	538.32
1325.00	567.19
1326.00	562.51
1327.00	574.99
1328.00	584.35
1329.00	663.93
1330.00	1003.31
1331.00	1950.45
1332.00	3598.96
1333.00	5563.45
1334.00	7025.51
1335.00	7403.89
1336.00	6717.34
1337.00	5293.51
1338.00	3730.81
1339.00	2380.32
1340.00	1500.28
1341.00	1027.50
1342.00	788.76
1343.00	686.56
1344.00	655.35
1345.00	645.21
1346.00	634.29
1347.00	606.98
1348.00	599.18
1349.00	614.78
1350.00	658.47
1351.00	684.22
1352.00	680.32
1353.00	685.78
1354.00	686.56
1355.00	738.05
1356.00	803.58
