SpectraSuite Data File
++++++++++++++++++++++++++++++++++++
Date: Thu Nov 16 13:55:22 EST 2017
User: cheriyan
Dark Spectrum Present: No
Reference Spectrum Present: No
Number of Sampled Component Spectra: 1
Spectrometers: USB2+H05261
Integration Time (usec): 100000 (USB2+H05261)
Spectra Averaged: 1 (USB2+H05261)
Boxcar Smoothing: 1 (USB2+H05261)
Correct for Electrical Dark: No (USB2+H05261)
Strobe/Lamp Enabled: No (USB2+H05261)
Correct for Detector Non-linearity: No (USB2+H05261)
Correct for Stray Light: No (USB2+H05261)
Number of Pixels in Processed Spectrum: 2048
>>>>>Begin Processed Spectral Data<<<<<
0.00	339.38
1.00	339.38
2.00	323.77
3.00	301.93
4.00	278.52
5.00	245.76
6.00	233.27
7.00	238.73
8.00	247.32
9.00	249.66
10.00	228.59
11.00	241.08
12.00	247.32
13.00	253.56
14.00	247.32
15.00	243.42
16.00	251.22
17.00	263.70
18.00	260.58
19.00	260.58
20.00	288.67
21.00	305.05
22.00	346.40
23.00	345.62
24.00	344.84
25.00	324.55
26.00	308.95
27.00	323.77
28.00	319.87
29.00	347.96
30.00	358.10
31.00	359.66
32.00	347.96
33.00	359.66
34.00	374.49
35.00	381.51
36.00	382.29
37.00	392.43
38.00	403.35
39.00	404.91
40.00	417.40
41.00	407.25
42.00	409.59
43.00	389.31
44.00	393.99
45.00	401.01
46.00	409.59
47.00	429.10
48.00	445.48
49.00	436.12
50.00	404.91
51.00	378.39
52.00	416.62
53.00	425.20
54.00	439.24
55.00	425.98
56.00	438.46
57.00	453.28
58.00	451.72
59.00	468.89
60.00	443.14
61.00	427.54
62.00	410.37
63.00	411.15
64.00	416.62
65.00	407.25
66.00	413.49
67.00	420.52
68.00	423.64
69.00	425.98
70.00	415.06
71.00	414.27
72.00	414.27
73.00	389.31
74.00	383.85
75.00	362.00
76.00	381.51
77.00	383.07
78.00	381.51
79.00	395.55
80.00	397.89
81.00	419.74
82.00	429.88
83.00	466.55
84.00	445.48
85.00	440.80
86.00	397.11
87.00	412.71
88.00	410.37
89.00	418.18
90.00	436.12
91.00	408.81
92.00	417.40
93.00	424.42
94.00	430.66
95.00	417.40
96.00	391.65
97.00	401.79
98.00	411.15
99.00	392.43
100.00	388.53
101.00	379.17
102.00	385.41
103.00	393.21
104.00	385.41
105.00	408.03
106.00	396.33
107.00	420.52
108.00	408.81
109.00	428.32
110.00	397.89
111.00	389.31
112.00	383.07
113.00	414.27
114.00	425.20
115.00	434.56
116.00	411.93
117.00	393.21
118.00	360.44
119.00	369.02
120.00	397.11
121.00	439.24
122.00	435.34
123.00	429.10
124.00	377.61
125.00	386.19
126.00	359.66
127.00	389.31
128.00	384.63
129.00	390.87
130.00	393.21
131.00	415.06
132.00	430.66
133.00	439.24
134.00	419.74
135.00	414.27
136.00	433.00
137.00	453.28
138.00	452.50
139.00	429.10
140.00	400.23
141.00	403.35
142.00	416.62
143.00	433.00
144.00	446.26
145.00	464.99
146.00	496.97
147.00	525.06
148.00	510.24
149.00	498.53
150.00	452.50
151.00	449.38
152.00	422.86
153.00	443.14
154.00	446.26
155.00	441.58
156.00	429.88
157.00	386.97
158.00	408.81
159.00	414.27
160.00	425.98
161.00	392.43
162.00	389.31
163.00	363.56
164.00	383.85
165.00	394.77
166.00	419.74
167.00	406.47
168.00	402.57
169.00	417.40
170.00	425.20
171.00	427.54
172.00	436.90
173.00	438.46
174.00	410.37
175.00	400.23
176.00	387.75
177.00	411.93
178.00	434.56
179.00	457.96
180.00	449.38
181.00	431.44
182.00	420.52
183.00	423.64
184.00	424.42
185.00	392.43
186.00	372.15
187.00	362.78
188.00	387.75
189.00	416.62
190.00	409.59
191.00	420.52
192.00	393.21
193.00	418.18
194.00	418.18
195.00	476.69
196.00	495.41
197.00	515.70
198.00	471.23
199.00	474.35
200.00	453.28
201.00	472.79
202.00	424.42
203.00	416.62
204.00	390.09
205.00	399.45
206.00	420.52
207.00	432.22
208.00	415.84
209.00	401.01
210.00	418.96
211.00	423.64
212.00	399.45
213.00	384.63
214.00	377.61
215.00	401.79
216.00	398.67
217.00	412.71
218.00	394.77
219.00	365.90
220.00	365.12
221.00	390.09
222.00	404.13
223.00	402.57
224.00	410.37
225.00	428.32
226.00	453.28
227.00	429.10
228.00	441.58
229.00	401.01
230.00	408.03
231.00	381.51
232.00	397.11
233.00	369.02
234.00	365.12
235.00	375.27
236.00	417.40
237.00	411.93
238.00	417.40
239.00	394.77
240.00	417.40
241.00	409.59
242.00	425.20
243.00	420.52
244.00	418.18
245.00	417.40
246.00	410.37
247.00	411.15
248.00	404.91
249.00	414.27
250.00	408.81
251.00	395.55
252.00	386.97
253.00	388.53
254.00	423.64
255.00	462.65
256.00	485.27
257.00	494.63
258.00	480.59
259.00	471.23
260.00	452.50
261.00	432.22
262.00	417.40
263.00	440.02
264.00	456.40
265.00	472.79
266.00	482.93
267.00	533.64
268.00	557.05
269.00	553.15
270.00	531.30
271.00	546.12
272.00	574.21
273.00	625.70
274.00	636.63
275.00	623.36
276.00	581.23
277.00	574.21
278.00	557.83
279.00	534.42
280.00	505.56
281.00	478.25
282.00	461.09
283.00	450.16
284.00	425.98
285.00	411.93
286.00	404.91
287.00	415.84
288.00	408.03
289.00	413.49
290.00	427.54
291.00	453.28
292.00	457.18
293.00	431.44
294.00	390.87
295.00	381.51
296.00	390.09
297.00	418.18
298.00	408.81
299.00	415.84
300.00	399.45
301.00	402.57
302.00	408.81
303.00	419.74
304.00	428.32
305.00	457.18
306.00	496.97
307.00	575.77
308.00	613.22
309.00	660.81
310.00	631.94
311.00	584.35
312.00	552.37
313.00	494.63
314.00	459.53
315.00	421.30
316.00	430.66
317.00	437.68
318.00	426.76
319.00	411.15
320.00	408.03
321.00	404.13
322.00	398.67
323.00	409.59
324.00	415.06
325.00	418.96
326.00	399.45
327.00	408.03
328.00	430.66
329.00	454.84
330.00	424.42
331.00	415.06
332.00	401.01
333.00	421.30
334.00	419.74
335.00	418.18
336.00	408.03
337.00	422.86
338.00	423.64
339.00	424.42
340.00	404.91
341.00	394.77
342.00	401.79
343.00	413.49
344.00	456.40
345.00	491.51
346.00	534.42
347.00	587.47
348.00	667.05
349.00	719.32
350.00	742.73
351.00	660.81
352.00	604.64
353.00	513.36
354.00	501.65
355.00	496.19
356.00	493.85
357.00	464.21
358.00	415.06
359.00	418.96
360.00	426.76
361.00	448.60
362.00	462.65
363.00	453.28
364.00	437.68
365.00	422.08
366.00	432.22
367.00	416.62
368.00	415.84
369.00	438.46
370.00	470.45
371.00	476.69
372.00	445.48
373.00	453.28
374.00	441.58
375.00	446.26
376.00	429.10
377.00	432.22
378.00	430.66
379.00	448.60
380.00	443.92
381.00	451.72
382.00	432.22
383.00	411.93
384.00	426.76
385.00	417.40
386.00	428.32
387.00	408.81
388.00	398.67
389.00	394.77
390.00	386.97
391.00	412.71
392.00	416.62
393.00	427.54
394.00	401.01
395.00	407.25
396.00	417.40
397.00	431.44
398.00	417.40
399.00	405.69
400.00	404.91
401.00	412.71
402.00	401.01
403.00	395.55
404.00	408.03
405.00	443.14
406.00	454.06
407.00	449.38
408.00	410.37
409.00	410.37
410.00	426.76
411.00	441.58
412.00	455.62
413.00	425.98
414.00	431.44
415.00	393.21
416.00	406.47
417.00	408.03
418.00	425.20
419.00	423.64
420.00	414.27
421.00	421.30
422.00	429.88
423.00	418.18
424.00	409.59
425.00	413.49
426.00	429.88
427.00	450.94
428.00	439.24
429.00	455.62
430.00	451.72
431.00	452.50
432.00	394.77
433.00	377.61
434.00	362.78
435.00	377.61
436.00	387.75
437.00	404.91
438.00	397.11
439.00	379.17
440.00	379.17
441.00	422.08
442.00	422.86
443.00	445.48
444.00	450.94
445.00	459.53
446.00	425.98
447.00	383.85
448.00	392.43
449.00	390.09
450.00	416.62
451.00	413.49
452.00	405.69
453.00	390.87
454.00	387.75
455.00	394.77
456.00	417.40
457.00	415.84
458.00	432.22
459.00	405.69
460.00	404.91
461.00	406.47
462.00	430.66
463.00	431.44
464.00	426.76
465.00	433.00
466.00	434.56
467.00	441.58
468.00	406.47
469.00	412.71
470.00	415.06
471.00	441.58
472.00	438.46
473.00	443.92
474.00	448.60
475.00	455.62
476.00	459.53
477.00	438.46
478.00	422.86
479.00	392.43
480.00	412.71
481.00	425.20
482.00	437.68
483.00	444.70
484.00	423.64
485.00	422.86
486.00	421.30
487.00	436.12
488.00	449.38
489.00	431.44
490.00	417.40
491.00	408.03
492.00	413.49
493.00	420.52
494.00	433.00
495.00	415.84
496.00	426.76
497.00	401.01
498.00	433.00
499.00	424.42
500.00	457.96
501.00	461.87
502.00	447.04
503.00	425.20
504.00	425.98
505.00	446.26
506.00	463.43
507.00	450.94
508.00	452.50
509.00	390.09
510.00	386.19
511.00	383.85
512.00	411.15
513.00	411.15
514.00	406.47
515.00	426.76
516.00	408.03
517.00	430.66
518.00	440.02
519.00	446.26
520.00	446.26
521.00	420.52
522.00	430.66
523.00	398.67
524.00	410.37
525.00	425.20
526.00	412.71
527.00	423.64
528.00	419.74
529.00	440.02
530.00	455.62
531.00	458.74
532.00	472.79
533.00	451.72
534.00	433.00
535.00	440.80
536.00	415.06
537.00	429.88
538.00	432.22
539.00	477.47
540.00	466.55
541.00	457.18
542.00	434.56
543.00	433.00
544.00	435.34
545.00	415.84
546.00	427.54
547.00	421.30
548.00	425.20
549.00	436.90
550.00	438.46
551.00	462.65
552.00	425.98
553.00	421.30
554.00	408.81
555.00	429.88
556.00	417.40
557.00	445.48
558.00	454.06
559.00	467.33
560.00	460.31
561.00	435.34
562.00	419.74
563.00	393.99
564.00	397.11
565.00	411.15
566.00	425.20
567.00	422.86
568.00	414.27
569.00	399.45
570.00	381.51
571.00	419.74
572.00	408.81
573.00	439.24
574.00	424.42
575.00	453.28
576.00	439.24
577.00	421.30
578.00	404.13
579.00	425.98
580.00	415.06
581.00	427.54
582.00	407.25
583.00	449.38
584.00	440.02
585.00	464.21
586.00	448.60
587.00	438.46
588.00	420.52
589.00	395.55
590.00	403.35
591.00	407.25
592.00	405.69
593.00	425.98
594.00	420.52
595.00	427.54
596.00	391.65
597.00	386.97
598.00	401.01
599.00	432.22
600.00	460.31
601.00	451.72
602.00	457.96
603.00	430.66
604.00	436.90
605.00	427.54
606.00	434.56
607.00	425.98
608.00	446.26
609.00	441.58
610.00	445.48
611.00	400.23
612.00	392.43
613.00	382.29
614.00	393.99
615.00	408.81
616.00	421.30
617.00	422.86
618.00	410.37
619.00	416.62
620.00	434.56
621.00	443.14
622.00	435.34
623.00	423.64
624.00	451.72
625.00	455.62
626.00	443.92
627.00	418.96
628.00	421.30
629.00	446.26
630.00	476.69
631.00	476.69
632.00	468.89
633.00	444.70
634.00	448.60
635.00	418.18
636.00	413.49
637.00	405.69
638.00	432.22
639.00	410.37
640.00	398.67
641.00	382.29
642.00	390.09
643.00	379.95
644.00	402.57
645.00	402.57
646.00	415.06
647.00	412.71
648.00	426.76
649.00	441.58
650.00	436.12
651.00	426.76
652.00	443.14
653.00	424.42
654.00	509.46
655.00	490.73
656.00	502.44
657.00	457.96
658.00	455.62
659.00	479.03
660.00	461.87
661.00	458.75
662.00	457.96
663.00	429.88
664.00	428.32
665.00	404.13
666.00	415.06
667.00	401.01
668.00	412.71
669.00	428.32
670.00	451.72
671.00	440.02
672.00	410.37
673.00	398.67
674.00	403.35
675.00	405.69
676.00	372.15
677.00	355.76
678.00	356.54
679.00	396.33
680.00	416.62
681.00	435.34
682.00	440.80
683.00	436.12
684.00	424.42
685.00	441.58
686.00	425.20
687.00	427.54
688.00	398.67
689.00	411.93
690.00	411.15
691.00	401.79
692.00	446.26
693.00	478.25
694.00	493.07
695.00	479.03
696.00	464.99
697.00	465.77
698.00	436.90
699.00	415.06
700.00	418.96
701.00	397.11
702.00	398.67
703.00	386.97
704.00	425.20
705.00	447.04
706.00	458.74
707.00	446.26
708.00	428.32
709.00	427.54
710.00	427.54
711.00	416.62
712.00	399.45
713.00	375.27
714.00	380.73
715.00	387.75
716.00	447.82
717.00	464.99
718.00	512.58
719.00	468.89
720.00	441.58
721.00	400.23
722.00	414.27
723.00	428.32
724.00	430.66
725.00	429.88
726.00	457.96
727.00	426.76
728.00	397.89
729.00	379.95
730.00	406.47
731.00	455.62
732.00	460.31
733.00	476.69
734.00	486.05
735.00	507.12
736.00	546.91
737.00	514.14
738.00	525.84
739.00	460.31
740.00	463.43
741.00	413.49
742.00	439.24
743.00	456.40
744.00	478.25
745.00	452.50
746.00	447.82
747.00	418.96
748.00	432.22
749.00	395.55
750.00	431.44
751.00	436.90
752.00	481.37
753.00	479.03
754.00	480.59
755.00	442.36
756.00	436.90
757.00	431.44
758.00	452.50
759.00	436.90
760.00	448.60
761.00	461.09
762.00	472.01
763.00	443.92
764.00	439.24
765.00	457.96
766.00	453.28
767.00	438.46
768.00	417.40
769.00	444.70
770.00	424.42
771.00	402.57
772.00	382.29
773.00	391.65
774.00	410.37
775.00	440.02
776.00	443.92
777.00	447.04
778.00	461.09
779.00	497.75
780.00	543.00
781.00	553.15
782.00	566.41
783.00	600.74
784.00	575.77
785.00	565.63
786.00	503.22
787.00	484.49
788.00	457.18
789.00	412.71
790.00	411.15
791.00	415.06
792.00	442.36
793.00	449.38
794.00	443.14
795.00	453.28
796.00	452.50
797.00	470.45
798.00	489.17
799.00	513.36
800.00	497.75
801.00	473.57
802.00	456.40
803.00	465.77
804.00	464.21
805.00	474.35
806.00	468.89
807.00	459.53
808.00	434.56
809.00	426.76
810.00	451.72
811.00	450.16
812.00	442.36
813.00	407.25
814.00	416.62
815.00	416.62
816.00	431.44
817.00	436.12
818.00	447.04
819.00	454.84
820.00	464.21
821.00	465.77
822.00	474.35
823.00	475.13
824.00	472.79
825.00	464.21
826.00	472.01
827.00	482.15
828.00	512.58
829.00	498.53
830.00	491.51
831.00	453.28
832.00	452.50
833.00	482.15
834.00	493.07
835.00	500.87
836.00	479.81
837.00	482.15
838.00	470.45
839.00	457.18
840.00	460.31
841.00	482.93
842.00	479.03
843.00	475.91
844.00	469.67
845.00	468.11
846.00	440.80
847.00	415.84
848.00	421.30
849.00	442.36
850.00	465.77
851.00	457.18
852.00	447.82
853.00	429.10
854.00	434.56
855.00	438.46
856.00	425.20
857.00	436.12
858.00	393.99
859.00	390.09
860.00	395.55
861.00	453.28
862.00	470.45
863.00	453.28
864.00	424.42
865.00	439.24
866.00	450.94
867.00	462.65
868.00	440.02
869.00	427.54
870.00	407.25
871.00	398.67
872.00	387.75
873.00	414.27
874.00	450.16
875.00	455.62
876.00	476.69
877.00	461.87
878.00	479.81
879.00	436.90
880.00	436.12
881.00	418.96
882.00	436.90
883.00	441.58
884.00	448.60
885.00	463.43
886.00	459.53
887.00	466.55
888.00	434.56
889.00	445.48
890.00	457.96
891.00	469.67
892.00	450.94
893.00	441.58
894.00	429.10
895.00	438.46
896.00	415.06
897.00	440.80
898.00	431.44
899.00	468.89
900.00	464.99
901.00	482.15
902.00	481.37
903.00	547.69
904.00	637.41
905.00	747.41
906.00	799.68
907.00	813.73
908.00	745.85
909.00	999.41
910.00	1022.81
911.00	1082.89
912.00	866.00
913.00	866.00
914.00	816.85
915.00	731.03
916.00	625.70
917.00	560.17
918.00	490.73
919.00	452.50
920.00	452.50
921.00	454.84
922.00	461.87
923.00	472.79
924.00	475.13
925.00	466.55
926.00	447.04
927.00	439.24
928.00	435.34
929.00	456.40
930.00	455.62
931.00	462.65
932.00	430.66
933.00	424.42
934.00	444.70
935.00	464.21
936.00	456.40
937.00	425.20
938.00	440.02
939.00	461.09
940.00	477.47
941.00	477.47
942.00	489.17
943.00	618.68
944.00	1034.52
945.00	1870.87
946.00	2878.86
947.00	3598.96
948.00	3659.82
949.00	3182.35
950.00	2363.94
951.00	1626.67
952.00	1023.59
953.00	723.23
954.00	560.17
955.00	514.92
956.00	505.56
957.00	513.36
958.00	506.34
959.00	477.47
960.00	435.34
961.00	422.08
962.00	403.35
963.00	411.93
964.00	405.69
965.00	407.25
966.00	429.10
967.00	448.60
968.00	492.29
969.00	482.93
970.00	477.47
971.00	464.21
972.00	462.65
973.00	470.45
974.00	446.26
975.00	441.58
976.00	418.96
977.00	428.32
978.00	436.12
979.00	468.89
980.00	479.03
981.00	483.71
982.00	462.65
983.00	460.31
984.00	444.70
985.00	465.77
986.00	438.46
987.00	439.24
988.00	410.37
989.00	439.24
990.00	444.70
991.00	440.02
992.00	404.91
993.00	399.45
994.00	443.92
995.00	476.69
996.00	484.49
997.00	433.78
998.00	452.50
999.00	457.18
1000.00	491.51
1001.00	480.59
1002.00	479.03
1003.00	463.43
1004.00	439.24
1005.00	425.98
1006.00	440.80
1007.00	445.48
1008.00	454.06
1009.00	458.74
1010.00	485.27
1011.00	477.47
1012.00	469.67
1013.00	442.36
1014.00	428.32
1015.00	438.46
1016.00	429.10
1017.00	458.75
1018.00	432.22
1019.00	471.23
1020.00	459.53
1021.00	469.67
1022.00	472.01
1023.00	472.79
1024.00	461.87
1025.00	426.76
1026.00	439.24
1027.00	443.14
1028.00	447.82
1029.00	429.10
1030.00	433.78
1031.00	452.50
1032.00	460.31
1033.00	461.09
1034.00	446.26
1035.00	440.02
1036.00	440.02
1037.00	436.90
1038.00	429.88
1039.00	442.36
1040.00	479.81
1041.00	512.58
1042.00	512.58
1043.00	516.48
1044.00	502.43
1045.00	546.91
1046.00	522.72
1047.00	519.60
1048.00	440.02
1049.00	446.26
1050.00	417.40
1051.00	437.68
1052.00	405.69
1053.00	422.86
1054.00	418.18
1055.00	428.32
1056.00	422.86
1057.00	423.64
1058.00	421.30
1059.00	436.12
1060.00	436.90
1061.00	450.16
1062.00	443.92
1063.00	462.65
1064.00	464.21
1065.00	462.65
1066.00	427.54
1067.00	432.22
1068.00	444.70
1069.00	464.21
1070.00	460.31
1071.00	453.28
1072.00	439.24
1073.00	438.46
1074.00	449.38
1075.00	466.55
1076.00	457.18
1077.00	450.94
1078.00	445.48
1079.00	467.33
1080.00	451.72
1081.00	447.82
1082.00	443.14
1083.00	466.55
1084.00	461.09
1085.00	422.08
1086.00	408.03
1087.00	415.84
1088.00	450.94
1089.00	468.89
1090.00	463.43
1091.00	464.99
1092.00	477.47
1093.00	494.63
1094.00	505.56
1095.00	505.56
1096.00	504.78
1097.00	493.07
1098.00	499.31
1099.00	558.61
1100.00	594.50
1101.00	618.68
1102.00	615.56
1103.00	605.42
1104.00	567.19
1105.00	504.00
1106.00	439.24
1107.00	425.98
1108.00	415.84
1109.00	441.58
1110.00	440.02
1111.00	428.32
1112.00	412.71
1113.00	411.93
1114.00	412.71
1115.00	440.02
1116.00	457.96
1117.00	480.59
1118.00	455.62
1119.00	463.43
1120.00	509.46
1121.00	529.74
1122.00	562.51
1123.00	507.12
1124.00	519.60
1125.00	420.52
1126.00	425.20
1127.00	395.55
1128.00	465.77
1129.00	490.73
1130.00	538.32
1131.00	518.04
1132.00	486.05
1133.00	465.77
1134.00	454.84
1135.00	442.36
1136.00	435.34
1137.00	472.79
1138.00	504.78
1139.00	518.04
1140.00	498.53
1141.00	520.38
1142.00	493.07
1143.00	482.15
1144.00	458.75
1145.00	467.33
1146.00	500.09
1147.00	488.39
1148.00	509.46
1149.00	486.83
1150.00	511.80
1151.00	519.60
1152.00	532.86
1153.00	539.88
1154.00	560.95
1155.00	589.81
1156.00	678.76
1157.00	738.83
1158.00	744.29
1159.00	704.50
1160.00	660.81
1161.00	631.16
1162.00	599.18
1163.00	629.60
1164.00	777.84
1165.00	1064.16
1166.00	1369.21
1167.00	1665.68
1168.00	1692.99
1169.00	1558.80
1170.00	1256.87
1171.00	987.71
1172.00	793.44
1173.00	681.88
1174.00	663.15
1175.00	606.98
1176.00	580.45
1177.00	559.39
1178.00	588.25
1179.00	597.62
1180.00	578.11
1181.00	576.55
1182.00	592.94
1183.00	638.97
1184.00	638.19
1185.00	641.31
1186.00	640.53
1187.00	678.76
1188.00	701.38
1189.00	738.05
1190.00	778.62
1191.00	832.45
1192.00	849.61
1193.00	862.10
1194.00	852.74
1195.00	838.69
1196.00	823.87
1197.00	803.58
1198.00	831.67
1199.00	956.50
1200.00	1159.35
1201.00	1396.52
1202.00	1494.82
1203.00	1514.33
1204.00	1375.45
1205.00	1253.75
1206.00	1133.60
1207.00	1112.53
1208.00	1136.72
1209.00	1137.50
1210.00	1164.81
1211.00	1205.38
1212.00	1338.79
1213.00	1478.44
1214.00	1692.21
1215.00	1972.29
1216.00	2537.92
1217.00	5534.59
1218.00	20488.27
1219.00	41230.88
1220.00	59424.64
1221.00	65535.00
1222.00	65535.00
1223.00	65535.00
1224.00	65535.00
1225.00	65265.06
1226.00	55962.99
1227.00	40257.99
1228.00	21710.81
1229.00	10708.73
1230.00	5498.70
1231.00	3165.96
1232.00	2189.18
1233.00	1804.55
1234.00	1636.81
1235.00	1616.53
1236.00	2032.37
1237.00	3623.93
1238.00	6741.52
1239.00	11080.88
1240.00	14673.60
1241.00	15877.41
1242.00	14271.81
1243.00	11009.88
1244.00	7561.49
1245.00	4731.78
1246.00	2809.42
1247.00	1759.30
1248.00	1198.35
1249.00	998.63
1250.00	956.50
1251.00	1016.57
1252.00	1095.37
1253.00	1175.73
1254.00	1224.88
1255.00	1200.69
1256.00	1164.81
1257.00	1096.93
1258.00	1042.32
1259.00	990.83
1260.00	957.28
1261.00	919.83
1262.00	897.99
1263.00	894.86
1264.00	868.34
1265.00	814.51
1266.00	745.85
1267.00	752.87
1268.00	756.77
1269.00	755.21
1270.00	755.99
1271.00	780.96
1272.00	816.07
1273.00	820.75
1274.00	861.32
1275.00	1213.18
1276.00	2906.17
1277.00	7029.41
1278.00	14267.13
1279.00	22292.04
1280.00	27899.19
1281.00	28134.02
1282.00	23986.59
1283.00	17581.32
1284.00	11442.88
1285.00	6662.72
1286.00	3619.25
1287.00	2085.42
1288.00	1338.79
1289.00	1042.32
1290.00	901.11
1291.00	896.43
1292.00	878.48
1293.00	886.28
1294.00	882.38
1295.00	1078.99
1296.00	1691.43
1297.00	2867.16
1298.00	4521.92
1299.00	6044.04
1300.00	6680.67
1301.00	6180.57
1302.00	4965.06
1303.00	3563.86
1304.00	2434.16
1305.00	1596.25
1306.00	1204.60
1307.00	965.08
1308.00	883.94
1309.00	806.70
1310.00	780.96
1311.00	713.08
1312.00	675.63
1313.00	647.55
1314.00	621.80
1315.00	604.64
1316.00	577.33
1317.00	574.99
1318.00	571.09
1319.00	603.86
1320.00	595.28
1321.00	574.99
1322.00	560.95
1323.00	560.17
1324.00	585.13
1325.00	592.94
1326.00	596.84
1327.00	568.75
1328.00	578.89
1329.00	651.45
1330.00	1039.20
1331.00	1870.09
1332.00	3405.48
1333.00	5251.38
1334.00	6732.94
1335.00	7142.53
1336.00	6442.71
1337.00	5096.91
1338.00	3641.09
1339.00	2413.09
1340.00	1507.30
1341.00	1007.21
1342.00	751.31
1343.00	692.80
1344.00	653.79
1345.00	645.21
1346.00	642.87
1347.00	628.82
1348.00	614.00
1349.00	619.46
1350.00	639.75
1351.00	666.27
1352.00	661.59
1353.00	677.20
1354.00	666.27
1355.00	676.41
1356.00	714.64
