SpectraSuite Data File
++++++++++++++++++++++++++++++++++++
Date: Thu Nov 16 13:55:20 EST 2017
User: cheriyan
Dark Spectrum Present: No
Reference Spectrum Present: No
Number of Sampled Component Spectra: 1
Spectrometers: USB2+H05261
Integration Time (usec): 100000 (USB2+H05261)
Spectra Averaged: 1 (USB2+H05261)
Boxcar Smoothing: 1 (USB2+H05261)
Correct for Electrical Dark: No (USB2+H05261)
Strobe/Lamp Enabled: No (USB2+H05261)
Correct for Detector Non-linearity: No (USB2+H05261)
Correct for Stray Light: No (USB2+H05261)
Number of Pixels in Processed Spectrum: 2048
>>>>>Begin Processed Spectral Data<<<<<
0.00	425.98
1.00	425.98
2.00	365.12
3.00	294.13
4.00	215.33
5.00	213.77
6.00	202.07
7.00	220.01
8.00	226.25
9.00	252.78
10.00	273.84
11.00	256.68
12.00	253.56
13.00	229.37
14.00	223.13
15.00	214.55
16.00	213.77
17.00	237.17
18.00	234.83
19.00	265.26
20.00	267.60
21.00	283.20
22.00	273.84
23.00	266.82
24.00	280.86
25.00	306.61
26.00	344.06
27.00	354.98
28.00	344.84
29.00	365.90
30.00	372.15
31.00	373.71
32.00	342.50
33.00	321.43
34.00	338.60
35.00	377.61
36.00	415.84
37.00	422.08
38.00	435.34
39.00	437.68
40.00	420.52
41.00	397.89
42.00	403.35
43.00	400.23
44.00	425.20
45.00	413.49
46.00	419.74
47.00	390.09
48.00	395.55
49.00	411.93
50.00	419.74
51.00	411.15
52.00	433.00
53.00	443.14
54.00	446.26
55.00	433.78
56.00	413.49
57.00	419.74
58.00	390.87
59.00	391.65
60.00	392.43
61.00	397.89
62.00	406.47
63.00	422.86
64.00	419.74
65.00	430.66
66.00	430.66
67.00	426.76
68.00	405.69
69.00	373.71
70.00	393.99
71.00	414.27
72.00	414.27
73.00	391.65
74.00	369.80
75.00	376.83
76.00	370.58
77.00	356.54
78.00	351.08
79.00	403.35
80.00	411.93
81.00	435.34
82.00	389.31
83.00	381.51
84.00	353.42
85.00	372.15
86.00	390.09
87.00	411.93
88.00	417.40
89.00	410.37
90.00	408.03
91.00	394.77
92.00	392.43
93.00	391.65
94.00	402.57
95.00	401.01
96.00	417.40
97.00	412.71
98.00	424.42
99.00	404.91
100.00	407.25
101.00	394.77
102.00	397.89
103.00	418.96
104.00	440.80
105.00	421.30
106.00	418.18
107.00	401.01
108.00	423.64
109.00	386.97
110.00	371.36
111.00	365.12
112.00	370.58
113.00	400.23
114.00	381.51
115.00	387.75
116.00	378.39
117.00	386.97
118.00	374.49
119.00	376.05
120.00	377.61
121.00	400.23
122.00	405.69
123.00	411.15
124.00	415.84
125.00	422.86
126.00	419.74
127.00	422.08
128.00	410.37
129.00	421.30
130.00	400.23
131.00	419.74
132.00	393.21
133.00	378.39
134.00	356.54
135.00	377.61
136.00	398.67
137.00	386.97
138.00	404.13
139.00	419.74
140.00	427.54
141.00	374.49
142.00	376.83
143.00	417.40
144.00	452.50
145.00	464.99
146.00	466.55
147.00	512.58
148.00	520.38
149.00	486.83
150.00	448.60
151.00	412.71
152.00	413.49
153.00	386.97
154.00	389.31
155.00	398.67
156.00	436.12
157.00	426.76
158.00	427.54
159.00	392.43
160.00	388.53
161.00	375.27
162.00	397.89
163.00	410.37
164.00	403.35
165.00	395.55
166.00	388.53
167.00	365.90
168.00	370.58
169.00	365.90
170.00	397.89
171.00	412.71
172.00	433.00
173.00	443.92
174.00	443.92
175.00	437.68
176.00	415.06
177.00	394.77
178.00	396.33
179.00	435.34
180.00	439.24
181.00	432.22
182.00	425.20
183.00	414.27
184.00	415.06
185.00	404.91
186.00	422.86
187.00	425.20
188.00	415.06
189.00	418.96
190.00	416.62
191.00	408.03
192.00	401.01
193.00	414.27
194.00	464.21
195.00	489.17
196.00	514.14
197.00	498.53
198.00	507.12
199.00	516.48
200.00	506.34
201.00	510.24
202.00	489.17
203.00	489.17
204.00	436.90
205.00	436.90
206.00	433.78
207.00	462.65
208.00	446.26
209.00	427.54
210.00	411.93
211.00	396.33
212.00	411.15
213.00	411.15
214.00	416.62
215.00	402.57
216.00	422.08
217.00	426.76
218.00	443.92
219.00	408.03
220.00	405.69
221.00	389.31
222.00	395.55
223.00	398.67
224.00	396.33
225.00	398.67
226.00	394.77
227.00	397.89
228.00	403.35
229.00	401.79
230.00	430.66
231.00	424.42
232.00	417.40
233.00	394.77
234.00	418.96
235.00	436.90
236.00	454.06
237.00	444.70
238.00	423.64
239.00	397.89
240.00	371.36
241.00	393.21
242.00	405.69
243.00	397.89
244.00	390.87
245.00	390.87
246.00	429.88
247.00	435.34
248.00	448.60
249.00	427.54
250.00	422.86
251.00	411.15
252.00	449.38
253.00	481.37
254.00	504.78
255.00	513.36
256.00	492.29
257.00	465.77
258.00	425.98
259.00	411.93
260.00	428.32
261.00	444.70
262.00	429.10
263.00	409.59
264.00	400.23
265.00	432.22
266.00	455.62
267.00	518.04
268.00	556.27
269.00	563.29
270.00	535.98
271.00	558.61
272.00	599.96
273.00	630.38
274.00	603.86
275.00	589.81
276.00	580.45
277.00	582.79
278.00	546.91
279.00	507.90
280.00	451.72
281.00	436.90
282.00	429.88
283.00	425.98
284.00	418.96
285.00	407.25
286.00	401.79
287.00	415.06
288.00	421.30
289.00	442.36
290.00	429.88
291.00	448.60
292.00	436.90
293.00	444.70
294.00	421.30
295.00	408.81
296.00	364.34
297.00	376.05
298.00	398.67
299.00	454.06
300.00	423.64
301.00	406.47
302.00	390.09
303.00	396.33
304.00	411.15
305.00	415.84
306.00	460.31
307.00	548.47
308.00	624.14
309.00	656.13
310.00	640.53
311.00	609.32
312.00	555.49
313.00	486.83
314.00	428.32
315.00	430.66
316.00	457.96
317.00	483.71
318.00	454.06
319.00	418.18
320.00	388.53
321.00	382.29
322.00	369.02
323.00	386.19
324.00	397.11
325.00	393.21
326.00	369.02
327.00	398.67
328.00	441.58
329.00	457.18
330.00	443.92
331.00	429.10
332.00	443.14
333.00	415.84
334.00	401.79
335.00	397.11
336.00	403.35
337.00	389.31
338.00	404.13
339.00	431.44
340.00	455.62
341.00	444.70
342.00	432.22
343.00	420.52
344.00	443.92
345.00	475.13
346.00	529.74
347.00	615.56
348.00	714.64
349.00	800.46
350.00	737.27
351.00	653.79
352.00	553.15
353.00	534.42
354.00	521.94
355.00	526.62
356.00	532.86
357.00	513.36
358.00	468.89
359.00	423.64
360.00	412.71
361.00	436.90
362.00	462.65
363.00	481.37
364.00	446.26
365.00	427.54
366.00	422.08
367.00	437.68
368.00	447.82
369.00	431.44
370.00	451.72
371.00	440.80
372.00	437.68
373.00	441.58
374.00	448.60
375.00	449.38
376.00	423.64
377.00	391.65
378.00	381.51
379.00	379.17
380.00	403.35
381.00	423.64
382.00	455.62
383.00	451.72
384.00	442.36
385.00	430.66
386.00	450.94
387.00	436.90
388.00	429.10
389.00	405.69
390.00	394.77
391.00	363.56
392.00	366.68
393.00	400.23
394.00	422.86
395.00	454.84
396.00	461.87
397.00	467.33
398.00	446.26
399.00	414.27
400.00	378.39
401.00	354.20
402.00	381.51
403.00	418.96
404.00	457.18
405.00	450.16
406.00	432.22
407.00	408.81
408.00	406.47
409.00	421.30
410.00	416.62
411.00	430.66
412.00	412.71
413.00	417.40
414.00	404.91
415.00	414.27
416.00	412.71
417.00	382.29
418.00	389.31
419.00	383.07
420.00	404.13
421.00	408.03
422.00	425.20
423.00	443.14
424.00	429.10
425.00	428.32
426.00	419.74
427.00	436.90
428.00	424.42
429.00	427.54
430.00	401.79
431.00	411.93
432.00	401.79
433.00	427.54
434.00	409.59
435.00	426.76
436.00	408.81
437.00	429.10
438.00	406.47
439.00	425.98
440.00	420.52
441.00	429.88
442.00	456.40
443.00	466.55
444.00	461.87
445.00	427.54
446.00	409.59
447.00	412.71
448.00	416.62
449.00	436.90
450.00	458.74
451.00	454.06
452.00	432.22
453.00	435.34
454.00	423.64
455.00	431.44
456.00	395.55
457.00	414.27
458.00	386.19
459.00	379.17
460.00	386.97
461.00	411.15
462.00	433.78
463.00	403.35
464.00	410.37
465.00	411.93
466.00	434.56
467.00	432.22
468.00	435.34
469.00	422.08
470.00	440.02
471.00	432.22
472.00	433.00
473.00	388.53
474.00	383.85
475.00	395.55
476.00	420.52
477.00	420.52
478.00	421.30
479.00	417.40
480.00	432.22
481.00	425.20
482.00	428.32
483.00	418.18
484.00	411.93
485.00	414.27
486.00	405.69
487.00	414.27
488.00	410.37
489.00	427.54
490.00	422.08
491.00	421.30
492.00	422.86
493.00	426.76
494.00	460.31
495.00	449.38
496.00	429.88
497.00	405.69
498.00	410.37
499.00	411.93
500.00	408.03
501.00	416.62
502.00	450.94
503.00	447.04
504.00	424.42
505.00	424.42
506.00	431.44
507.00	437.68
508.00	426.76
509.00	403.35
510.00	409.59
511.00	408.03
512.00	422.86
513.00	415.84
514.00	415.84
515.00	408.81
516.00	402.57
517.00	384.63
518.00	407.25
519.00	415.06
520.00	442.36
521.00	418.18
522.00	413.49
523.00	395.55
524.00	412.71
525.00	428.32
526.00	430.66
527.00	421.30
528.00	408.81
529.00	407.25
530.00	430.66
531.00	463.43
532.00	493.07
533.00	461.87
534.00	429.10
535.00	416.62
536.00	405.69
537.00	395.55
538.00	376.83
539.00	404.91
540.00	427.54
541.00	423.64
542.00	436.90
543.00	432.22
544.00	447.04
545.00	417.40
546.00	415.84
547.00	395.55
548.00	423.64
549.00	447.04
550.00	489.17
551.00	478.25
552.00	473.57
553.00	423.64
554.00	404.13
555.00	398.67
556.00	434.56
557.00	450.94
558.00	448.60
559.00	426.76
560.00	413.49
561.00	380.73
562.00	380.73
563.00	382.29
564.00	395.55
565.00	387.75
566.00	418.18
567.00	459.53
568.00	482.15
569.00	475.91
570.00	422.08
571.00	422.86
572.00	425.98
573.00	472.01
574.00	467.33
575.00	462.65
576.00	455.62
577.00	464.99
578.00	450.94
579.00	427.54
580.00	437.68
581.00	447.04
582.00	464.99
583.00	472.01
584.00	466.55
585.00	451.72
586.00	443.14
587.00	436.90
588.00	438.46
589.00	410.37
590.00	410.37
591.00	429.10
592.00	443.92
593.00	441.58
594.00	443.14
595.00	453.28
596.00	469.67
597.00	448.60
598.00	438.46
599.00	426.76
600.00	449.38
601.00	461.87
602.00	450.16
603.00	415.84
604.00	392.43
605.00	406.47
606.00	441.58
607.00	486.83
608.00	497.75
609.00	489.95
610.00	449.38
611.00	433.78
612.00	395.55
613.00	400.23
614.00	390.09
615.00	431.44
616.00	422.86
617.00	443.14
618.00	411.93
619.00	415.84
620.00	426.76
621.00	443.92
622.00	449.38
623.00	447.82
624.00	433.78
625.00	433.78
626.00	440.02
627.00	433.78
628.00	419.74
629.00	415.06
630.00	418.18
631.00	445.48
632.00	419.74
633.00	437.68
634.00	424.42
635.00	418.96
636.00	436.12
637.00	433.00
638.00	447.04
639.00	430.66
640.00	438.46
641.00	448.60
642.00	463.43
643.00	454.84
644.00	448.60
645.00	429.10
646.00	441.58
647.00	425.20
648.00	431.44
649.00	434.56
650.00	439.24
651.00	433.78
652.00	448.60
653.00	443.92
654.00	487.61
655.00	476.69
656.00	509.46
657.00	470.45
658.00	455.62
659.00	451.72
660.00	441.58
661.00	434.56
662.00	431.44
663.00	437.68
664.00	429.88
665.00	393.21
666.00	390.87
667.00	408.03
668.00	436.12
669.00	439.24
670.00	448.60
671.00	441.58
672.00	438.46
673.00	441.58
674.00	450.94
675.00	422.86
676.00	397.89
677.00	385.41
678.00	416.62
679.00	450.94
680.00	443.92
681.00	447.04
682.00	403.35
683.00	401.01
684.00	398.67
685.00	397.89
686.00	415.06
687.00	412.71
688.00	408.81
689.00	399.45
690.00	391.65
691.00	406.47
692.00	397.11
693.00	426.76
694.00	404.91
695.00	400.23
696.00	387.75
697.00	418.96
698.00	420.52
699.00	413.49
700.00	415.84
701.00	420.52
702.00	401.01
703.00	383.07
704.00	390.87
705.00	397.11
706.00	426.76
707.00	429.88
708.00	431.44
709.00	409.59
710.00	401.79
711.00	395.55
712.00	411.93
713.00	401.01
714.00	429.88
715.00	428.32
716.00	460.31
717.00	445.48
718.00	471.23
719.00	468.11
720.00	488.39
721.00	450.94
722.00	442.36
723.00	444.70
724.00	458.74
725.00	446.26
726.00	397.89
727.00	368.24
728.00	388.53
729.00	407.25
730.00	406.47
731.00	411.93
732.00	436.12
733.00	482.15
734.00	474.35
735.00	474.35
736.00	459.53
737.00	499.31
738.00	511.80
739.00	507.12
740.00	471.23
741.00	445.48
742.00	426.76
743.00	429.88
744.00	434.56
745.00	460.31
746.00	457.96
747.00	440.80
748.00	417.40
749.00	397.89
750.00	400.23
751.00	394.77
752.00	412.71
753.00	424.42
754.00	446.26
755.00	458.75
756.00	436.90
757.00	432.22
758.00	412.71
759.00	440.02
760.00	440.80
761.00	462.65
762.00	464.21
763.00	462.65
764.00	464.99
765.00	473.57
766.00	501.65
767.00	491.51
768.00	475.13
769.00	448.60
770.00	441.58
771.00	443.14
772.00	456.40
773.00	458.74
774.00	473.57
775.00	454.84
776.00	457.18
777.00	436.90
778.00	466.55
779.00	482.15
780.00	537.54
781.00	542.22
782.00	550.81
783.00	586.69
784.00	592.16
785.00	574.99
786.00	481.37
787.00	420.52
788.00	404.91
789.00	383.85
790.00	405.69
791.00	410.37
792.00	446.26
793.00	454.06
794.00	444.70
795.00	416.62
796.00	397.11
797.00	411.93
798.00	441.58
799.00	477.47
800.00	471.23
801.00	464.21
802.00	465.77
803.00	488.39
804.00	494.63
805.00	500.09
806.00	486.05
807.00	455.62
808.00	425.20
809.00	418.18
810.00	447.82
811.00	457.18
812.00	437.68
813.00	434.56
814.00	401.01
815.00	403.35
816.00	377.61
817.00	413.49
818.00	450.16
819.00	475.13
820.00	463.43
821.00	467.33
822.00	463.43
823.00	489.95
824.00	483.71
825.00	513.36
826.00	504.78
827.00	471.23
828.00	423.64
829.00	423.64
830.00	468.89
831.00	489.17
832.00	471.23
833.00	448.60
834.00	457.96
835.00	475.91
836.00	485.27
837.00	474.35
838.00	454.84
839.00	402.57
840.00	403.35
841.00	423.64
842.00	454.84
843.00	447.04
844.00	479.03
845.00	496.97
846.00	505.56
847.00	436.12
848.00	433.78
849.00	436.12
850.00	477.47
851.00	462.65
852.00	457.96
853.00	423.64
854.00	410.37
855.00	372.15
856.00	362.00
857.00	382.29
858.00	415.06
859.00	443.14
860.00	423.64
861.00	443.92
862.00	454.84
863.00	457.18
864.00	433.78
865.00	425.20
866.00	436.12
867.00	447.04
868.00	443.14
869.00	443.92
870.00	436.12
871.00	432.22
872.00	418.96
873.00	450.94
874.00	448.60
875.00	447.82
876.00	434.56
877.00	450.16
878.00	472.79
879.00	465.77
880.00	479.81
881.00	449.38
882.00	444.70
883.00	418.18
884.00	433.00
885.00	431.44
886.00	430.66
887.00	416.62
888.00	387.75
889.00	395.55
890.00	422.08
891.00	462.65
892.00	450.16
893.00	425.98
894.00	405.69
895.00	411.15
896.00	439.24
897.00	461.87
898.00	437.68
899.00	419.74
900.00	407.25
901.00	442.36
902.00	453.28
903.00	521.94
904.00	617.12
905.00	755.21
906.00	784.08
907.00	770.82
908.00	692.02
909.00	958.84
910.00	985.37
911.00	1078.99
912.00	837.13
913.00	842.59
914.00	794.22
915.00	750.53
916.00	652.23
917.00	581.23
918.00	493.07
919.00	462.65
920.00	425.20
921.00	407.25
922.00	414.27
923.00	410.37
924.00	470.45
925.00	464.21
926.00	489.17
927.00	470.45
928.00	461.87
929.00	462.65
930.00	462.65
931.00	472.79
932.00	449.38
933.00	431.44
934.00	440.02
935.00	458.74
936.00	466.55
937.00	457.96
938.00	472.79
939.00	461.87
940.00	466.55
941.00	445.48
942.00	492.29
943.00	637.41
944.00	1066.50
945.00	1889.59
946.00	2897.58
947.00	3664.50
948.00	3740.96
949.00	3208.09
950.00	2360.04
951.00	1602.49
952.00	1047.00
953.00	719.32
954.00	535.98
955.00	485.27
956.00	454.06
957.00	469.67
958.00	455.62
959.00	481.37
960.00	478.25
961.00	467.33
962.00	450.94
963.00	425.98
964.00	441.58
965.00	453.28
966.00	461.87
967.00	450.94
968.00	450.94
969.00	466.55
970.00	478.25
971.00	472.79
972.00	454.84
973.00	444.70
974.00	416.62
975.00	401.01
976.00	383.85
977.00	421.30
978.00	464.21
979.00	478.25
980.00	470.45
981.00	464.21
982.00	458.75
983.00	441.58
984.00	409.59
985.00	409.59
986.00	407.25
987.00	435.34
988.00	463.43
989.00	450.94
990.00	433.00
991.00	407.25
992.00	413.49
993.00	420.52
994.00	423.64
995.00	415.06
996.00	430.66
997.00	422.86
998.00	440.80
999.00	443.92
1000.00	453.28
1001.00	434.56
1002.00	439.24
1003.00	440.80
1004.00	468.89
1005.00	449.38
1006.00	469.67
1007.00	477.47
1008.00	464.21
1009.00	461.87
1010.00	478.25
1011.00	479.03
1012.00	505.56
1013.00	457.18
1014.00	466.55
1015.00	432.22
1016.00	464.21
1017.00	465.77
1018.00	451.72
1019.00	422.86
1020.00	409.59
1021.00	404.91
1022.00	421.30
1023.00	452.50
1024.00	459.53
1025.00	436.12
1026.00	423.64
1027.00	438.46
1028.00	454.84
1029.00	446.26
1030.00	459.53
1031.00	476.69
1032.00	464.21
1033.00	412.71
1034.00	395.55
1035.00	417.40
1036.00	466.55
1037.00	473.57
1038.00	464.99
1039.00	447.04
1040.00	454.84
1041.00	479.81
1042.00	508.68
1043.00	503.22
1044.00	509.46
1045.00	528.18
1046.00	539.88
1047.00	506.34
1048.00	472.01
1049.00	444.70
1050.00	436.12
1051.00	418.96
1052.00	426.76
1053.00	453.28
1054.00	475.91
1055.00	457.96
1056.00	438.46
1057.00	423.64
1058.00	429.88
1059.00	453.28
1060.00	445.48
1061.00	461.87
1062.00	467.33
1063.00	468.89
1064.00	468.89
1065.00	440.02
1066.00	413.49
1067.00	412.71
1068.00	406.47
1069.00	417.40
1070.00	425.98
1071.00	439.24
1072.00	448.60
1073.00	436.90
1074.00	430.66
1075.00	434.56
1076.00	417.40
1077.00	435.34
1078.00	448.60
1079.00	489.17
1080.00	471.23
1081.00	443.14
1082.00	422.08
1083.00	410.37
1084.00	424.42
1085.00	426.76
1086.00	458.75
1087.00	457.96
1088.00	452.50
1089.00	440.02
1090.00	443.92
1091.00	439.24
1092.00	457.96
1093.00	452.50
1094.00	464.99
1095.00	446.26
1096.00	448.60
1097.00	443.14
1098.00	461.09
1099.00	495.41
1100.00	540.66
1101.00	561.73
1102.00	579.67
1103.00	558.61
1104.00	533.64
1105.00	497.75
1106.00	480.59
1107.00	461.87
1108.00	426.76
1109.00	432.22
1110.00	434.56
1111.00	450.16
1112.00	443.92
1113.00	457.18
1114.00	481.37
1115.00	472.79
1116.00	475.91
1117.00	449.38
1118.00	450.94
1119.00	469.67
1120.00	501.65
1121.00	534.42
1122.00	534.42
1123.00	516.48
1124.00	482.15
1125.00	434.56
1126.00	438.46
1127.00	447.82
1128.00	463.43
1129.00	456.40
1130.00	445.48
1131.00	443.92
1132.00	450.16
1133.00	454.84
1134.00	465.77
1135.00	472.01
1136.00	479.81
1137.00	514.92
1138.00	533.64
1139.00	539.10
1140.00	516.48
1141.00	524.28
1142.00	535.20
1143.00	502.43
1144.00	484.49
1145.00	444.70
1146.00	453.28
1147.00	437.68
1148.00	450.94
1149.00	454.06
1150.00	457.18
1151.00	461.87
1152.00	468.11
1153.00	476.69
1154.00	504.78
1155.00	541.44
1156.00	632.72
1157.00	699.04
1158.00	743.51
1159.00	713.08
1160.00	665.49
1161.00	628.04
1162.00	571.09
1163.00	621.02
1164.00	744.29
1165.00	1041.54
1166.00	1379.36
1167.00	1653.98
1168.00	1710.15
1169.00	1568.16
1170.00	1324.74
1171.00	1072.75
1172.00	853.52
1173.00	700.60
1174.00	632.72
1175.00	617.90
1176.00	640.53
1177.00	633.50
1178.00	636.63
1179.00	600.74
1180.00	610.88
1181.00	606.20
1182.00	612.44
1183.00	596.06
1184.00	595.28
1185.00	638.19
1186.00	649.11
1187.00	666.27
1188.00	663.93
1189.00	731.81
1190.00	791.10
1191.00	872.24
1192.00	895.64
1193.00	898.77
1194.00	869.90
1195.00	851.95
1196.00	823.87
1197.00	816.07
1198.00	851.17
1199.00	983.02
1200.00	1185.87
1201.00	1389.50
1202.00	1494.04
1203.00	1480.78
1204.00	1397.30
1205.00	1298.22
1206.00	1206.16
1207.00	1137.50
1208.00	1110.97
1209.00	1122.68
1210.00	1177.29
1211.00	1225.66
1212.00	1340.35
1213.00	1471.42
1214.00	1722.63
1215.00	1970.73
1216.00	2491.11
1217.00	5687.50
1218.00	21254.40
1219.00	42030.56
1220.00	60009.78
1221.00	65535.00
1222.00	65535.00
1223.00	65535.00
1224.00	65535.00
1225.00	65357.90
1226.00	56157.25
1227.00	40558.36
1228.00	21937.06
1229.00	10839.80
1230.00	5532.25
1231.00	3198.73
1232.00	2283.58
1233.00	1883.35
1234.00	1698.45
1235.00	1638.38
1236.00	2094.78
1237.00	3773.72
1238.00	7079.34
1239.00	11582.53
1240.00	15249.37
1241.00	16272.18
1242.00	14567.49
1243.00	11265.78
1244.00	7845.48
1245.00	4886.26
1246.00	2864.82
1247.00	1756.18
1248.00	1217.08
1249.00	973.66
1250.00	927.63
1251.00	1012.67
1252.00	1125.80
1253.00	1222.54
1254.00	1276.37
1255.00	1238.92
1256.00	1181.19
1257.00	1101.61
1258.00	1076.65
1259.00	1025.93
1260.00	966.64
1261.00	889.40
1262.00	862.10
1263.00	869.12
1264.00	841.81
1265.00	809.83
1266.00	763.79
1267.00	773.16
1268.00	759.11
1269.00	736.49
1270.00	695.14
1271.00	735.71
1272.00	790.32
1273.00	828.55
1274.00	871.46
1275.00	1213.96
1276.00	2977.16
1277.00	7147.22
1278.00	14572.18
1279.00	22909.16
1280.00	28598.23
1281.00	28747.24
1282.00	24418.03
1283.00	17887.15
1284.00	11700.34
1285.00	6763.37
1286.00	3693.37
1287.00	2049.53
1288.00	1232.68
1289.00	938.55
1290.00	834.79
1291.00	855.86
1292.00	870.68
1293.00	917.49
1294.00	929.97
1295.00	1092.25
1296.00	1685.97
1297.00	2907.73
1298.00	4635.04
1299.00	6150.93
1300.00	6804.72
1301.00	6313.20
1302.00	5103.15
1303.00	3661.38
1304.00	2437.28
1305.00	1578.30
1306.00	1146.08
1307.00	952.60
1308.00	883.94
1309.00	825.43
1310.00	766.92
1311.00	689.68
1312.00	642.09
1313.00	613.22
1314.00	630.38
1315.00	622.58
1316.00	596.84
1317.00	544.56
1318.00	532.08
1319.00	578.11
1320.00	585.91
1321.00	596.06
1322.00	546.91
1323.00	528.18
1324.00	517.26
1325.00	536.76
1326.00	563.29
1327.00	554.71
1328.00	569.53
1329.00	643.65
1330.00	1022.03
1331.00	1942.64
1332.00	3564.64
1333.00	5444.09
1334.00	6966.21
1335.00	7326.66
1336.00	6644.00
1337.00	5286.49
1338.00	3779.97
1339.00	2509.83
1340.00	1551.78
1341.00	1070.40
1342.00	816.07
1343.00	706.06
1344.00	642.87
1345.00	642.87
1346.00	605.42
1347.00	624.14
1348.00	624.92
1349.00	667.05
1350.00	673.29
1351.00	659.25
1352.00	656.91
1353.00	674.07
1354.00	720.88
1355.00	763.79
1356.00	813.73
