SpectraSuite Data File
++++++++++++++++++++++++++++++++++++
Date: Thu Nov 16 13:55:14 EST 2017
User: cheriyan
Dark Spectrum Present: No
Reference Spectrum Present: No
Number of Sampled Component Spectra: 1
Spectrometers: USB2+H05261
Integration Time (usec): 100000 (USB2+H05261)
Spectra Averaged: 1 (USB2+H05261)
Boxcar Smoothing: 1 (USB2+H05261)
Correct for Electrical Dark: No (USB2+H05261)
Strobe/Lamp Enabled: No (USB2+H05261)
Correct for Detector Non-linearity: No (USB2+H05261)
Correct for Stray Light: No (USB2+H05261)
Number of Pixels in Processed Spectrum: 2048
>>>>>Begin Processed Spectral Data<<<<<
0.00	344.06
1.00	344.06
2.00	312.85
3.00	261.36
4.00	235.61
5.00	230.93
6.00	249.66
7.00	251.22
8.00	247.32
9.00	234.83
10.00	223.91
11.00	230.93
12.00	231.71
13.00	222.35
14.00	241.86
15.00	264.48
16.00	289.45
17.00	281.64
18.00	272.28
19.00	269.94
20.00	274.62
21.00	288.67
22.00	318.31
23.00	340.16
24.00	375.27
25.00	355.76
26.00	372.15
27.00	352.64
28.00	360.44
29.00	353.42
30.00	349.52
31.00	354.98
32.00	379.95
33.00	403.35
34.00	433.78
35.00	406.47
36.00	406.47
37.00	387.75
38.00	372.93
39.00	374.49
40.00	375.27
41.00	401.79
42.00	397.89
43.00	404.13
44.00	415.84
45.00	409.59
46.00	417.40
47.00	411.93
48.00	416.62
49.00	406.47
50.00	419.74
51.00	435.34
52.00	444.70
53.00	433.78
54.00	408.81
55.00	407.25
56.00	405.69
57.00	432.22
58.00	436.12
59.00	429.10
60.00	422.86
61.00	443.14
62.00	429.88
63.00	432.22
64.00	398.67
65.00	405.69
66.00	405.69
67.00	437.68
68.00	411.93
69.00	428.32
70.00	415.06
71.00	454.06
72.00	429.10
73.00	422.86
74.00	413.49
75.00	411.93
76.00	404.13
77.00	418.96
78.00	430.66
79.00	436.12
80.00	431.44
81.00	417.40
82.00	416.62
83.00	374.49
84.00	389.31
85.00	393.99
86.00	397.11
87.00	414.27
88.00	421.30
89.00	450.16
90.00	419.74
91.00	425.20
92.00	411.15
93.00	410.37
94.00	403.35
95.00	418.18
96.00	422.86
97.00	440.80
98.00	450.16
99.00	435.34
100.00	401.79
101.00	371.36
102.00	383.07
103.00	380.73
104.00	387.75
105.00	390.09
106.00	405.69
107.00	413.49
108.00	434.56
109.00	436.90
110.00	431.44
111.00	407.25
112.00	394.77
113.00	409.59
114.00	413.49
115.00	398.67
116.00	391.65
117.00	408.03
118.00	413.49
119.00	403.35
120.00	366.68
121.00	366.68
122.00	356.54
123.00	354.20
124.00	351.86
125.00	368.24
126.00	384.63
127.00	399.45
128.00	408.03
129.00	415.06
130.00	399.45
131.00	390.09
132.00	401.01
133.00	421.30
134.00	413.49
135.00	399.45
136.00	400.23
137.00	415.06
138.00	415.84
139.00	414.27
140.00	421.30
141.00	411.93
142.00	411.93
143.00	439.24
144.00	481.37
145.00	508.68
146.00	507.12
147.00	529.74
148.00	506.34
149.00	489.95
150.00	450.16
151.00	460.31
152.00	457.18
153.00	468.89
154.00	464.99
155.00	443.92
156.00	435.34
157.00	425.20
158.00	469.67
159.00	454.84
160.00	440.02
161.00	393.21
162.00	411.15
163.00	394.77
164.00	397.89
165.00	347.18
166.00	347.18
167.00	349.52
168.00	372.93
169.00	386.19
170.00	394.77
171.00	400.23
172.00	415.06
173.00	429.88
174.00	440.80
175.00	448.60
176.00	422.08
177.00	410.37
178.00	409.59
179.00	427.54
180.00	443.92
181.00	421.30
182.00	416.62
183.00	406.47
184.00	402.57
185.00	415.84
186.00	420.52
187.00	455.62
188.00	408.03
189.00	408.03
190.00	405.69
191.00	424.42
192.00	418.18
193.00	401.79
194.00	439.24
195.00	475.13
196.00	559.39
197.00	557.83
198.00	535.20
199.00	464.21
200.00	468.11
201.00	497.75
202.00	492.29
203.00	448.60
204.00	418.96
205.00	411.15
206.00	427.54
207.00	408.81
208.00	410.37
209.00	420.52
210.00	462.65
211.00	444.70
212.00	433.78
213.00	392.43
214.00	404.13
215.00	417.40
216.00	451.72
217.00	461.87
218.00	455.62
219.00	436.90
220.00	429.10
221.00	416.62
222.00	398.67
223.00	404.91
224.00	404.91
225.00	394.77
226.00	383.85
227.00	374.49
228.00	386.97
229.00	395.55
230.00	427.54
231.00	404.91
232.00	386.19
233.00	376.05
234.00	404.91
235.00	411.15
236.00	407.25
237.00	389.31
238.00	405.69
239.00	381.51
240.00	386.97
241.00	381.51
242.00	398.67
243.00	398.67
244.00	400.23
245.00	411.93
246.00	419.74
247.00	411.15
248.00	415.84
249.00	415.84
250.00	429.10
251.00	424.42
252.00	436.12
253.00	440.80
254.00	450.94
255.00	465.77
256.00	475.91
257.00	464.21
258.00	440.80
259.00	422.08
260.00	408.03
261.00	409.59
262.00	417.40
263.00	447.82
264.00	458.74
265.00	446.26
266.00	468.11
267.00	521.94
268.00	584.35
269.00	577.33
270.00	560.17
271.00	567.19
272.00	611.66
273.00	632.72
274.00	620.24
275.00	590.60
276.00	603.08
277.00	592.16
278.00	571.09
279.00	546.91
280.00	527.40
281.00	500.87
282.00	447.82
283.00	438.46
284.00	451.72
285.00	450.16
286.00	419.74
287.00	409.59
288.00	395.55
289.00	397.11
290.00	410.37
291.00	420.52
292.00	442.36
293.00	436.12
294.00	425.20
295.00	421.30
296.00	392.43
297.00	389.31
298.00	390.09
299.00	390.09
300.00	388.53
301.00	381.51
302.00	393.99
303.00	416.62
304.00	431.44
305.00	423.64
306.00	482.15
307.00	521.94
308.00	617.90
309.00	659.25
310.00	658.47
311.00	637.41
312.00	573.43
313.00	523.50
314.00	464.99
315.00	448.60
316.00	473.57
317.00	488.39
318.00	453.28
319.00	438.46
320.00	420.52
321.00	432.22
322.00	417.40
323.00	409.59
324.00	419.74
325.00	421.30
326.00	435.34
327.00	408.81
328.00	436.90
329.00	445.48
330.00	450.16
331.00	437.68
332.00	429.88
333.00	440.02
334.00	428.32
335.00	415.84
336.00	408.03
337.00	415.84
338.00	434.56
339.00	456.40
340.00	446.26
341.00	457.18
342.00	447.04
343.00	457.96
344.00	479.81
345.00	506.34
346.00	585.91
347.00	634.29
348.00	711.52
349.00	731.81
350.00	711.52
351.00	654.57
352.00	579.67
353.00	564.07
354.00	560.17
355.00	560.17
356.00	525.06
357.00	488.39
358.00	463.43
359.00	455.62
360.00	468.11
361.00	483.71
362.00	483.71
363.00	493.07
364.00	460.31
365.00	448.60
366.00	415.84
367.00	440.02
368.00	468.11
369.00	456.40
370.00	447.04
371.00	422.86
372.00	443.14
373.00	465.77
374.00	446.26
375.00	424.42
376.00	396.33
377.00	414.27
378.00	429.10
379.00	436.90
380.00	427.54
381.00	432.22
382.00	416.62
383.00	411.15
384.00	397.89
385.00	386.19
386.00	398.67
387.00	418.96
388.00	428.32
389.00	420.52
390.00	394.77
391.00	411.93
392.00	401.01
393.00	418.18
394.00	397.89
395.00	411.93
396.00	415.84
397.00	463.43
398.00	470.45
399.00	464.99
400.00	419.74
401.00	410.37
402.00	391.65
403.00	399.45
404.00	412.71
405.00	434.56
406.00	437.68
407.00	436.12
408.00	424.42
409.00	423.64
410.00	400.23
411.00	408.81
412.00	397.89
413.00	408.81
414.00	383.85
415.00	379.95
416.00	385.41
417.00	411.15
418.00	427.54
419.00	414.27
420.00	401.79
421.00	397.89
422.00	415.84
423.00	421.30
424.00	425.20
425.00	413.49
426.00	426.76
427.00	438.46
428.00	464.99
429.00	456.40
430.00	445.48
431.00	428.32
432.00	423.64
433.00	408.03
434.00	405.69
435.00	435.34
436.00	459.53
437.00	455.62
438.00	418.96
439.00	400.23
440.00	390.87
441.00	408.03
442.00	425.20
443.00	445.48
444.00	429.88
445.00	440.02
446.00	453.28
447.00	460.31
448.00	437.68
449.00	408.03
450.00	406.47
451.00	406.47
452.00	426.76
453.00	425.98
454.00	422.86
455.00	413.49
456.00	429.10
457.00	438.46
458.00	451.72
459.00	447.04
460.00	446.26
461.00	453.28
462.00	447.04
463.00	436.12
464.00	404.91
465.00	410.37
466.00	420.52
467.00	428.32
468.00	425.20
469.00	410.37
470.00	420.52
471.00	425.20
472.00	432.22
473.00	426.76
474.00	408.81
475.00	411.15
476.00	409.59
477.00	399.45
478.00	429.10
479.00	431.44
480.00	433.78
481.00	412.71
482.00	393.99
483.00	400.23
484.00	396.33
485.00	393.99
486.00	394.77
487.00	373.71
488.00	399.45
489.00	402.57
490.00	404.13
491.00	403.35
492.00	418.18
493.00	443.92
494.00	465.77
495.00	462.65
496.00	469.67
497.00	421.30
498.00	414.27
499.00	404.91
500.00	414.27
501.00	432.22
502.00	443.92
503.00	462.65
504.00	464.99
505.00	452.50
506.00	448.60
507.00	422.08
508.00	422.86
509.00	400.23
510.00	408.03
511.00	393.21
512.00	411.15
513.00	404.91
514.00	418.18
515.00	415.84
516.00	410.37
517.00	443.14
518.00	451.72
519.00	457.18
520.00	417.40
521.00	393.21
522.00	392.43
523.00	405.69
524.00	423.64
525.00	433.00
526.00	421.30
527.00	426.76
528.00	393.99
529.00	397.89
530.00	376.05
531.00	425.98
532.00	449.38
533.00	452.50
534.00	448.60
535.00	433.78
536.00	434.56
537.00	432.22
538.00	417.40
539.00	456.40
540.00	444.70
541.00	451.72
542.00	430.66
543.00	440.80
544.00	450.94
545.00	450.16
546.00	449.38
547.00	434.56
548.00	429.10
549.00	418.18
550.00	436.90
551.00	433.00
552.00	437.68
553.00	445.48
554.00	440.80
555.00	448.60
556.00	427.54
557.00	443.14
558.00	436.12
559.00	425.20
560.00	407.25
561.00	387.75
562.00	400.23
563.00	384.63
564.00	412.71
565.00	390.87
566.00	431.44
567.00	430.66
568.00	454.84
569.00	435.34
570.00	433.78
571.00	450.16
572.00	443.14
573.00	446.26
574.00	418.96
575.00	415.06
576.00	412.71
577.00	445.48
578.00	457.18
579.00	457.18
580.00	433.78
581.00	461.09
582.00	463.43
583.00	457.18
584.00	429.10
585.00	441.58
586.00	459.53
587.00	442.36
588.00	406.47
589.00	415.84
590.00	432.22
591.00	454.84
592.00	425.98
593.00	458.75
594.00	445.48
595.00	447.82
596.00	415.84
597.00	393.99
598.00	383.85
599.00	398.67
600.00	447.04
601.00	451.72
602.00	442.36
603.00	395.55
604.00	408.03
605.00	389.31
606.00	428.32
607.00	386.97
608.00	387.75
609.00	363.56
610.00	397.11
611.00	416.62
612.00	417.40
613.00	414.27
614.00	429.10
615.00	419.74
616.00	422.86
617.00	399.45
618.00	419.74
619.00	428.32
620.00	451.72
621.00	440.02
622.00	446.26
623.00	396.33
624.00	426.76
625.00	422.86
626.00	440.80
627.00	418.96
628.00	408.03
629.00	451.72
630.00	447.04
631.00	440.02
632.00	396.33
633.00	429.10
634.00	420.52
635.00	436.90
636.00	416.62
637.00	425.20
638.00	439.24
639.00	443.92
640.00	461.09
641.00	442.36
642.00	439.24
643.00	432.22
644.00	432.22
645.00	384.63
646.00	383.85
647.00	372.15
648.00	421.30
649.00	433.78
650.00	449.38
651.00	446.26
652.00	416.62
653.00	421.30
654.00	453.28
655.00	482.93
656.00	506.34
657.00	471.23
658.00	435.34
659.00	415.84
660.00	415.84
661.00	425.98
662.00	449.38
663.00	459.53
664.00	464.99
665.00	429.88
666.00	401.01
667.00	423.64
668.00	425.98
669.00	438.46
670.00	411.93
671.00	426.76
672.00	436.12
673.00	452.50
674.00	443.92
675.00	414.27
676.00	399.45
677.00	386.19
678.00	386.19
679.00	408.81
680.00	402.57
681.00	415.06
682.00	404.13
683.00	429.10
684.00	423.64
685.00	434.56
686.00	423.64
687.00	442.36
688.00	423.64
689.00	451.72
690.00	447.82
691.00	443.92
692.00	399.45
693.00	390.87
694.00	390.87
695.00	392.43
696.00	395.55
697.00	422.08
698.00	429.88
699.00	444.70
700.00	408.81
701.00	427.54
702.00	422.86
703.00	440.80
704.00	415.84
705.00	391.65
706.00	413.49
707.00	429.88
708.00	475.91
709.00	440.02
710.00	441.58
711.00	433.00
712.00	435.34
713.00	425.98
714.00	408.81
715.00	456.40
716.00	450.94
717.00	454.84
718.00	461.09
719.00	458.74
720.00	469.67
721.00	422.86
722.00	457.96
723.00	450.16
724.00	452.50
725.00	428.32
726.00	411.15
727.00	388.53
728.00	390.87
729.00	398.67
730.00	427.54
731.00	431.44
732.00	436.90
733.00	454.84
734.00	470.45
735.00	498.53
736.00	505.56
737.00	505.56
738.00	501.65
739.00	467.33
740.00	443.14
741.00	395.55
742.00	414.27
743.00	435.34
744.00	473.57
745.00	452.50
746.00	415.84
747.00	410.37
748.00	406.47
749.00	424.42
750.00	424.42
751.00	438.46
752.00	456.40
753.00	450.94
754.00	445.48
755.00	446.26
756.00	451.72
757.00	486.05
758.00	489.17
759.00	485.27
760.00	479.03
761.00	476.69
762.00	466.55
763.00	459.53
764.00	477.47
765.00	472.79
766.00	455.62
767.00	434.56
768.00	466.55
769.00	457.18
770.00	418.96
771.00	375.27
772.00	373.71
773.00	390.09
774.00	433.00
775.00	465.77
776.00	481.37
777.00	461.09
778.00	481.37
779.00	493.07
780.00	551.59
781.00	557.05
782.00	582.01
783.00	630.38
784.00	617.12
785.00	601.52
786.00	504.00
787.00	461.09
788.00	419.74
789.00	432.22
790.00	443.14
791.00	458.75
792.00	419.74
793.00	410.37
794.00	418.18
795.00	419.74
796.00	430.66
797.00	427.54
798.00	456.40
799.00	489.95
800.00	493.85
801.00	468.11
802.00	448.60
803.00	457.18
804.00	463.43
805.00	468.11
806.00	442.36
807.00	464.21
808.00	446.26
809.00	454.06
810.00	455.62
811.00	451.72
812.00	443.14
813.00	422.08
814.00	412.71
815.00	427.54
816.00	427.54
817.00	426.76
818.00	389.31
819.00	406.47
820.00	429.10
821.00	478.25
822.00	498.53
823.00	524.28
824.00	525.06
825.00	530.52
826.00	517.26
827.00	503.22
828.00	429.10
829.00	411.93
830.00	418.96
831.00	456.40
832.00	473.57
833.00	478.25
834.00	489.17
835.00	486.83
836.00	486.05
837.00	493.85
838.00	474.35
839.00	440.80
840.00	435.34
841.00	444.70
842.00	471.23
843.00	470.45
844.00	459.53
845.00	433.78
846.00	408.81
847.00	415.84
848.00	439.24
849.00	438.46
850.00	448.60
851.00	433.00
852.00	434.56
853.00	402.57
854.00	431.44
855.00	433.00
856.00	429.88
857.00	392.43
858.00	406.47
859.00	422.08
860.00	455.62
861.00	457.96
862.00	457.96
863.00	472.01
864.00	448.60
865.00	461.09
866.00	424.42
867.00	433.78
868.00	409.59
869.00	404.13
870.00	397.11
871.00	388.53
872.00	400.23
873.00	421.30
874.00	468.89
875.00	470.45
876.00	468.89
877.00	453.28
878.00	442.36
879.00	447.82
880.00	445.48
881.00	447.04
882.00	411.93
883.00	442.36
884.00	446.26
885.00	491.51
886.00	487.61
887.00	518.04
888.00	493.07
889.00	475.91
890.00	457.96
891.00	458.75
892.00	440.80
893.00	429.10
894.00	439.24
895.00	441.58
896.00	439.24
897.00	434.56
898.00	433.00
899.00	436.12
900.00	434.56
901.00	435.34
902.00	450.94
903.00	501.65
904.00	629.60
905.00	754.43
906.00	815.29
907.00	775.50
908.00	709.18
909.00	952.60
910.00	992.39
911.00	1057.92
912.00	880.04
913.00	914.37
914.00	858.20
915.00	732.59
916.00	606.20
917.00	565.63
918.00	506.34
919.00	475.91
920.00	445.48
921.00	446.26
922.00	449.38
923.00	446.26
924.00	476.69
925.00	468.89
926.00	461.09
927.00	446.26
928.00	457.18
929.00	471.23
930.00	465.77
931.00	461.09
932.00	456.40
933.00	460.31
934.00	459.53
935.00	466.55
936.00	470.45
937.00	462.65
938.00	462.65
939.00	436.12
940.00	471.23
941.00	471.23
942.00	496.19
943.00	626.48
944.00	1058.70
945.00	1915.34
946.00	2940.49
947.00	3711.31
948.00	3773.72
949.00	3208.09
950.00	2363.94
951.00	1579.86
952.00	1025.15
953.00	674.07
954.00	555.49
955.00	523.50
956.00	500.09
957.00	468.11
958.00	443.14
959.00	469.67
960.00	489.95
961.00	482.15
962.00	447.82
963.00	423.64
964.00	399.45
965.00	418.96
966.00	447.04
967.00	482.15
968.00	496.19
969.00	477.47
970.00	453.28
971.00	440.80
972.00	457.96
973.00	483.71
974.00	493.07
975.00	475.91
976.00	464.99
977.00	430.66
978.00	460.31
979.00	459.53
980.00	464.99
981.00	450.94
982.00	447.04
983.00	461.09
984.00	433.78
985.00	445.48
986.00	426.76
987.00	429.10
988.00	449.38
989.00	501.65
990.00	521.16
991.00	481.37
992.00	427.54
993.00	417.40
994.00	412.71
995.00	419.74
996.00	423.64
997.00	444.70
998.00	467.33
999.00	475.13
1000.00	482.15
1001.00	468.89
1002.00	468.11
1003.00	462.65
1004.00	464.21
1005.00	482.15
1006.00	488.39
1007.00	493.07
1008.00	472.01
1009.00	469.67
1010.00	464.99
1011.00	455.62
1012.00	466.55
1013.00	438.46
1014.00	409.59
1015.00	389.31
1016.00	412.71
1017.00	439.24
1018.00	444.70
1019.00	454.06
1020.00	464.99
1021.00	458.75
1022.00	433.00
1023.00	441.58
1024.00	462.65
1025.00	486.83
1026.00	483.71
1027.00	462.65
1028.00	440.02
1029.00	443.92
1030.00	451.72
1031.00	491.51
1032.00	482.15
1033.00	488.39
1034.00	492.29
1035.00	486.05
1036.00	451.72
1037.00	423.64
1038.00	402.57
1039.00	413.49
1040.00	425.20
1041.00	454.06
1042.00	499.31
1043.00	513.36
1044.00	521.16
1045.00	535.98
1046.00	510.24
1047.00	516.48
1048.00	475.13
1049.00	467.33
1050.00	447.04
1051.00	439.24
1052.00	433.00
1053.00	440.02
1054.00	426.76
1055.00	468.11
1056.00	443.14
1057.00	457.96
1058.00	418.18
1059.00	436.12
1060.00	420.52
1061.00	433.78
1062.00	450.94
1063.00	493.85
1064.00	504.00
1065.00	456.40
1066.00	421.30
1067.00	433.00
1068.00	470.45
1069.00	468.89
1070.00	440.02
1071.00	432.22
1072.00	429.10
1073.00	444.70
1074.00	441.58
1075.00	431.44
1076.00	420.52
1077.00	420.52
1078.00	450.94
1079.00	492.29
1080.00	510.24
1081.00	507.12
1082.00	477.47
1083.00	464.99
1084.00	459.53
1085.00	434.56
1086.00	454.84
1087.00	450.16
1088.00	485.27
1089.00	452.50
1090.00	454.06
1091.00	429.88
1092.00	440.80
1093.00	440.80
1094.00	457.96
1095.00	483.71
1096.00	477.47
1097.00	483.71
1098.00	522.72
1099.00	582.01
1100.00	614.78
1101.00	589.03
1102.00	578.89
1103.00	557.05
1104.00	556.27
1105.00	528.18
1106.00	526.62
1107.00	511.80
1108.00	484.49
1109.00	453.28
1110.00	405.69
1111.00	404.13
1112.00	408.03
1113.00	443.14
1114.00	464.99
1115.00	475.13
1116.00	486.05
1117.00	483.71
1118.00	457.96
1119.00	441.58
1120.00	475.13
1121.00	527.40
1122.00	557.05
1123.00	536.76
1124.00	503.22
1125.00	461.87
1126.00	458.74
1127.00	463.43
1128.00	479.03
1129.00	474.35
1130.00	464.21
1131.00	460.31
1132.00	459.53
1133.00	460.31
1134.00	476.69
1135.00	475.91
1136.00	506.34
1137.00	518.04
1138.00	534.42
1139.00	533.64
1140.00	527.40
1141.00	534.42
1142.00	513.36
1143.00	489.95
1144.00	474.35
1145.00	486.05
1146.00	500.09
1147.00	487.61
1148.00	493.85
1149.00	497.75
1150.00	494.63
1151.00	487.61
1152.00	506.34
1153.00	540.66
1154.00	585.13
1155.00	587.47
1156.00	685.78
1157.00	727.91
1158.00	757.55
1159.00	698.26
1160.00	638.19
1161.00	601.52
1162.00	569.53
1163.00	616.34
1164.00	752.09
1165.00	1065.72
1166.00	1419.92
1167.00	1699.23
1168.00	1702.35
1169.00	1540.85
1170.00	1253.75
1171.00	1017.35
1172.00	819.19
1173.00	677.98
1174.00	603.08
1175.00	578.11
1176.00	596.84
1177.00	600.74
1178.00	585.13
1179.00	603.86
1180.00	584.35
1181.00	599.96
1182.00	597.62
1183.00	640.53
1184.00	633.50
1185.00	635.07
1186.00	610.88
1187.00	597.62
1188.00	617.12
1189.00	683.44
1190.00	773.94
1191.00	850.39
1192.00	860.54
1193.00	886.28
1194.00	862.10
1195.00	847.27
1196.00	832.45
1197.00	832.45
1198.00	889.40
1199.00	1007.99
1200.00	1230.34
1201.00	1409.00
1202.00	1493.26
1203.00	1464.40
1204.00	1379.36
1205.00	1259.21
1206.00	1149.98
1207.00	1087.57
1208.00	1105.51
1209.00	1121.12
1210.00	1178.07
1211.00	1206.94
1212.00	1328.64
1213.00	1480.78
1214.00	1699.23
1215.00	1990.24
1216.00	2524.66
1217.00	5740.55
1218.00	21170.93
1219.00	41922.90
1220.00	59913.81
1221.00	65535.00
1222.00	65535.00
1223.00	65535.00
1224.00	65535.00
1225.00	65314.21
1226.00	56138.53
1227.00	40461.62
1228.00	21809.11
1229.00	10666.60
1230.00	5453.45
1231.00	3160.50
1232.00	2250.04
1233.00	1857.61
1234.00	1721.85
1235.00	1692.21
1236.00	2120.53
1237.00	3727.69
1238.00	7022.39
1239.00	11544.30
1240.00	15236.11
1241.00	16318.21
1242.00	14633.81
1243.00	11325.85
1244.00	7773.70
1245.00	4794.20
1246.00	2810.20
1247.00	1777.25
1248.00	1220.20
1249.00	982.24
1250.00	912.81
1251.00	990.83
1252.00	1060.26
1253.00	1177.29
1254.00	1240.48
1255.00	1251.41
1256.00	1187.43
1257.00	1109.41
1258.00	1030.62
1259.00	1000.97
1260.00	926.85
1261.00	911.25
1262.00	880.82
1263.00	888.62
1264.00	848.83
1265.00	805.92
1266.00	785.64
1267.00	769.26
1268.00	766.14
1269.00	763.79
1270.00	776.28
1271.00	752.87
1272.00	721.67
1273.00	722.45
1274.00	787.20
1275.00	1199.13
1276.00	2952.20
1277.00	7158.92
1278.00	14493.38
1279.00	22788.24
1280.00	28486.66
1281.00	28690.29
1282.00	24408.67
1283.00	17778.71
1284.00	11507.63
1285.00	6539.46
1286.00	3591.94
1287.00	2102.58
1288.00	1362.97
1289.00	991.61
1290.00	855.08
1291.00	823.87
1292.00	874.58
1293.00	889.40
1294.00	926.07
1295.00	1103.17
1296.00	1715.61
1297.00	2917.87
1298.00	4620.22
1299.00	6142.35
1300.00	6791.45
1301.00	6329.59
1302.00	5132.79
1303.00	3712.87
1304.00	2475.51
1305.00	1602.49
1306.00	1184.31
1307.00	984.59
1308.00	907.35
1309.00	830.11
1310.00	793.44
1311.00	705.28
1312.00	668.61
1313.00	635.85
1314.00	635.07
1315.00	623.36
1316.00	608.54
1317.00	594.50
1318.00	597.62
1319.00	578.89
1320.00	569.53
1321.00	517.26
1322.00	518.04
1323.00	518.82
1324.00	541.44
1325.00	551.59
1326.00	516.48
1327.00	525.06
1328.00	546.12
1329.00	658.47
1330.00	994.73
1331.00	1898.17
1332.00	3504.56
1333.00	5425.36
1334.00	6907.70
1335.00	7287.65
1336.00	6636.98
1337.00	5243.58
1338.00	3764.36
1339.00	2427.92
1340.00	1557.24
1341.00	1065.72
1342.00	841.81
1343.00	716.98
1344.00	653.01
1345.00	642.09
1346.00	627.26
1347.00	645.99
1348.00	628.82
1349.00	649.11
1350.00	620.24
1351.00	652.23
1352.00	645.21
1353.00	681.10
1354.00	672.51
1355.00	734.15
1356.00	791.10
