SpectraSuite Data File
++++++++++++++++++++++++++++++++++++
Date: Thu Nov 16 13:55:16 EST 2017
User: cheriyan
Dark Spectrum Present: No
Reference Spectrum Present: No
Number of Sampled Component Spectra: 1
Spectrometers: USB2+H05261
Integration Time (usec): 100000 (USB2+H05261)
Spectra Averaged: 1 (USB2+H05261)
Boxcar Smoothing: 1 (USB2+H05261)
Correct for Electrical Dark: No (USB2+H05261)
Strobe/Lamp Enabled: No (USB2+H05261)
Correct for Detector Non-linearity: No (USB2+H05261)
Correct for Stray Light: No (USB2+H05261)
Number of Pixels in Processed Spectrum: 2048
>>>>>Begin Processed Spectral Data<<<<<
0.00	353.42
1.00	353.42
2.00	349.52
3.00	317.53
4.00	291.01
5.00	243.42
6.00	255.12
7.00	249.66
8.00	276.18
9.00	272.28
10.00	283.98
11.00	247.32
12.00	230.93
13.00	206.75
14.00	230.93
15.00	222.35
16.00	241.86
17.00	254.34
18.00	262.92
19.00	287.11
20.00	276.18
21.00	285.55
22.00	259.80
23.00	308.95
24.00	337.04
25.00	361.22
26.00	334.70
27.00	345.62
28.00	351.08
29.00	393.21
30.00	408.03
31.00	406.47
32.00	371.36
33.00	352.64
34.00	361.22
35.00	388.53
36.00	399.45
37.00	418.18
38.00	415.06
39.00	386.97
40.00	379.17
41.00	393.21
42.00	411.15
43.00	389.31
44.00	385.41
45.00	392.43
46.00	436.12
47.00	440.02
48.00	461.87
49.00	433.78
50.00	426.76
51.00	398.67
52.00	425.20
53.00	427.54
54.00	447.82
55.00	443.92
56.00	447.82
57.00	446.26
58.00	425.20
59.00	399.45
60.00	381.51
61.00	383.07
62.00	397.89
63.00	406.47
64.00	377.61
65.00	375.27
66.00	373.71
67.00	409.59
68.00	400.23
69.00	407.25
70.00	415.06
71.00	433.78
72.00	397.89
73.00	385.41
74.00	376.83
75.00	425.20
76.00	427.54
77.00	423.64
78.00	425.98
79.00	416.62
80.00	391.65
81.00	359.66
82.00	358.10
83.00	388.53
84.00	415.06
85.00	413.49
86.00	397.89
87.00	383.85
88.00	395.55
89.00	398.67
90.00	411.15
91.00	388.53
92.00	390.09
93.00	380.73
94.00	392.43
95.00	393.99
96.00	396.33
97.00	415.06
98.00	404.13
99.00	431.44
100.00	413.49
101.00	429.10
102.00	399.45
103.00	391.65
104.00	387.75
105.00	402.57
106.00	418.96
107.00	418.96
108.00	417.40
109.00	430.66
110.00	440.02
111.00	406.47
112.00	374.49
113.00	378.39
114.00	387.75
115.00	406.47
116.00	400.23
117.00	404.91
118.00	415.06
119.00	421.30
120.00	418.18
121.00	397.89
122.00	385.41
123.00	372.15
124.00	359.66
125.00	363.56
126.00	362.78
127.00	369.02
128.00	359.66
129.00	370.58
130.00	375.27
131.00	398.67
132.00	393.99
133.00	425.20
134.00	407.25
135.00	435.34
136.00	440.80
137.00	454.06
138.00	432.22
139.00	408.03
140.00	416.62
141.00	425.98
142.00	459.53
143.00	459.53
144.00	479.03
145.00	458.75
146.00	453.28
147.00	453.28
148.00	450.16
149.00	432.22
150.00	397.89
151.00	390.09
152.00	400.23
153.00	429.10
154.00	442.36
155.00	425.98
156.00	440.02
157.00	431.44
158.00	437.68
159.00	399.45
160.00	387.75
161.00	390.87
162.00	407.25
163.00	425.98
164.00	433.78
165.00	410.37
166.00	391.65
167.00	396.33
168.00	418.96
169.00	411.15
170.00	390.87
171.00	384.63
172.00	397.89
173.00	410.37
174.00	414.27
175.00	411.15
176.00	430.66
177.00	442.36
178.00	447.82
179.00	440.80
180.00	439.24
181.00	444.70
182.00	440.80
183.00	407.25
184.00	417.40
185.00	401.01
186.00	398.67
187.00	395.55
188.00	415.06
189.00	436.90
190.00	424.42
191.00	419.74
192.00	429.88
193.00	454.84
194.00	454.06
195.00	502.44
196.00	515.70
197.00	534.42
198.00	521.94
199.00	489.17
200.00	477.47
201.00	411.15
202.00	385.41
203.00	359.66
204.00	369.80
205.00	397.11
206.00	413.49
207.00	415.84
208.00	412.71
209.00	398.67
210.00	413.49
211.00	417.40
212.00	436.90
213.00	418.18
214.00	401.01
215.00	401.01
216.00	437.68
217.00	449.38
218.00	440.02
219.00	422.86
220.00	420.52
221.00	402.57
222.00	396.33
223.00	405.69
224.00	415.84
225.00	427.54
226.00	402.57
227.00	392.43
228.00	362.78
229.00	369.02
230.00	386.19
231.00	418.96
232.00	443.14
233.00	468.89
234.00	459.53
235.00	445.48
236.00	402.57
237.00	400.23
238.00	379.95
239.00	402.57
240.00	379.17
241.00	376.05
242.00	389.31
243.00	412.71
244.00	429.10
245.00	412.71
246.00	433.00
247.00	418.18
248.00	433.00
249.00	411.93
250.00	425.98
251.00	393.99
252.00	389.31
253.00	390.87
254.00	417.40
255.00	461.09
256.00	475.91
257.00	481.37
258.00	450.94
259.00	433.78
260.00	433.78
261.00	404.91
262.00	412.71
263.00	410.37
264.00	431.44
265.00	429.88
266.00	454.06
267.00	526.62
268.00	571.87
269.00	570.31
270.00	524.28
271.00	532.86
272.00	573.43
273.00	617.90
274.00	621.80
275.00	624.92
276.00	624.92
277.00	607.76
278.00	550.03
279.00	479.03
280.00	429.10
281.00	401.01
282.00	410.37
283.00	411.93
284.00	392.43
285.00	386.97
286.00	394.77
287.00	413.49
288.00	425.98
289.00	417.40
290.00	425.98
291.00	418.96
292.00	420.52
293.00	404.91
294.00	391.65
295.00	403.35
296.00	415.06
297.00	411.93
298.00	411.93
299.00	436.90
300.00	427.54
301.00	433.78
302.00	422.86
303.00	428.32
304.00	397.89
305.00	400.23
306.00	451.72
307.00	518.04
308.00	607.76
309.00	653.79
310.00	670.95
311.00	601.52
312.00	536.76
313.00	464.99
314.00	407.25
315.00	408.81
316.00	424.42
317.00	455.62
318.00	422.08
319.00	406.47
320.00	383.85
321.00	383.85
322.00	378.39
323.00	378.39
324.00	381.51
325.00	383.85
326.00	415.06
327.00	432.22
328.00	424.42
329.00	399.45
330.00	392.43
331.00	416.62
332.00	427.54
333.00	404.91
334.00	385.41
335.00	391.65
336.00	427.54
337.00	447.04
338.00	449.38
339.00	443.92
340.00	440.80
341.00	430.66
342.00	411.15
343.00	397.89
344.00	404.91
345.00	455.62
346.00	553.93
347.00	634.29
348.00	688.90
349.00	717.76
350.00	705.28
351.00	648.33
352.00	571.87
353.00	532.86
354.00	525.84
355.00	533.64
356.00	510.24
357.00	494.63
358.00	443.92
359.00	452.50
360.00	447.04
361.00	429.88
362.00	411.15
363.00	409.59
364.00	401.01
365.00	427.54
366.00	434.56
367.00	479.03
368.00	461.87
369.00	459.53
370.00	429.10
371.00	418.18
372.00	401.01
373.00	424.42
374.00	417.40
375.00	398.67
376.00	403.35
377.00	418.18
378.00	429.10
379.00	420.52
380.00	407.25
381.00	429.10
382.00	440.80
383.00	450.94
384.00	441.58
385.00	440.80
386.00	418.96
387.00	410.37
388.00	377.61
389.00	386.97
390.00	374.49
391.00	394.77
392.00	409.59
393.00	427.54
394.00	411.93
395.00	401.79
396.00	425.98
397.00	440.02
398.00	439.24
399.00	431.44
400.00	424.42
401.00	422.08
402.00	403.35
403.00	419.74
404.00	412.71
405.00	445.48
406.00	429.10
407.00	429.10
408.00	391.65
409.00	411.93
410.00	415.06
411.00	443.14
412.00	435.34
413.00	436.90
414.00	424.42
415.00	429.10
416.00	433.78
417.00	421.30
418.00	422.08
419.00	419.74
420.00	422.08
421.00	424.42
422.00	435.34
423.00	421.30
424.00	408.03
425.00	409.59
426.00	445.48
427.00	429.88
428.00	401.79
429.00	389.31
430.00	385.41
431.00	425.20
432.00	412.71
433.00	433.78
434.00	428.32
435.00	431.44
436.00	426.76
437.00	409.59
438.00	401.79
439.00	411.93
440.00	429.88
441.00	455.62
442.00	483.71
443.00	477.47
444.00	464.99
445.00	418.96
446.00	410.37
447.00	409.59
448.00	416.62
449.00	419.74
450.00	408.81
451.00	395.55
452.00	388.53
453.00	401.01
454.00	397.89
455.00	423.64
456.00	400.23
457.00	393.99
458.00	358.88
459.00	380.73
460.00	422.86
461.00	440.80
462.00	440.80
463.00	415.84
464.00	414.27
465.00	434.56
466.00	456.40
467.00	453.28
468.00	422.86
469.00	401.79
470.00	393.21
471.00	376.83
472.00	402.57
473.00	418.96
474.00	450.94
475.00	443.92
476.00	450.94
477.00	427.54
478.00	411.93
479.00	386.19
480.00	401.79
481.00	416.62
482.00	418.18
483.00	417.40
484.00	400.23
485.00	410.37
486.00	428.32
487.00	436.12
488.00	436.90
489.00	425.20
490.00	422.08
491.00	422.08
492.00	424.42
493.00	428.32
494.00	452.50
495.00	423.64
496.00	411.15
497.00	385.41
498.00	424.42
499.00	410.37
500.00	405.69
501.00	398.67
502.00	433.78
503.00	451.72
504.00	436.90
505.00	436.90
506.00	452.50
507.00	468.89
508.00	469.67
509.00	429.88
510.00	434.56
511.00	409.59
512.00	425.98
513.00	404.13
514.00	400.23
515.00	395.55
516.00	412.71
517.00	444.70
518.00	441.58
519.00	412.71
520.00	404.91
521.00	402.57
522.00	427.54
523.00	413.49
524.00	425.20
525.00	421.30
526.00	417.40
527.00	436.12
528.00	424.42
529.00	422.08
530.00	401.79
531.00	425.20
532.00	470.45
533.00	468.89
534.00	474.35
535.00	451.72
536.00	424.42
537.00	422.08
538.00	435.34
539.00	484.49
540.00	469.67
541.00	455.62
542.00	431.44
543.00	447.04
544.00	424.42
545.00	409.59
546.00	397.89
547.00	419.74
548.00	460.31
549.00	461.87
550.00	452.50
551.00	418.96
552.00	416.62
553.00	440.80
554.00	437.68
555.00	461.09
556.00	444.70
557.00	446.26
558.00	445.48
559.00	442.36
560.00	445.48
561.00	433.78
562.00	426.76
563.00	444.70
564.00	414.27
565.00	404.13
566.00	404.13
567.00	427.54
568.00	443.92
569.00	425.20
570.00	414.27
571.00	430.66
572.00	415.84
573.00	412.71
574.00	411.15
575.00	432.22
576.00	443.92
577.00	429.10
578.00	444.70
579.00	435.34
580.00	415.06
581.00	399.45
582.00	411.15
583.00	434.56
584.00	431.44
585.00	425.98
586.00	413.49
587.00	415.84
588.00	425.20
589.00	449.38
590.00	436.12
591.00	415.84
592.00	387.75
593.00	420.52
594.00	430.66
595.00	456.40
596.00	442.36
597.00	434.56
598.00	420.52
599.00	435.34
600.00	432.22
601.00	451.72
602.00	456.40
603.00	450.94
604.00	416.62
605.00	386.19
606.00	415.06
607.00	413.49
608.00	436.90
609.00	414.27
610.00	411.15
611.00	386.97
612.00	390.87
613.00	393.99
614.00	413.49
615.00	393.99
616.00	399.45
617.00	401.79
618.00	446.26
619.00	454.84
620.00	444.70
621.00	429.10
622.00	426.76
623.00	417.40
624.00	418.96
625.00	407.25
626.00	412.71
627.00	423.64
628.00	446.26
629.00	460.31
630.00	416.62
631.00	412.71
632.00	401.79
633.00	427.54
634.00	401.79
635.00	391.65
636.00	413.49
637.00	429.88
638.00	447.04
639.00	442.36
640.00	454.84
641.00	425.98
642.00	423.64
643.00	422.86
644.00	433.00
645.00	407.25
646.00	404.91
647.00	396.33
648.00	400.23
649.00	425.20
650.00	464.21
651.00	472.79
652.00	436.90
653.00	397.11
654.00	418.96
655.00	440.80
656.00	454.84
657.00	418.18
658.00	403.35
659.00	407.25
660.00	411.93
661.00	392.43
662.00	420.52
663.00	397.11
664.00	428.32
665.00	423.64
666.00	452.50
667.00	440.02
668.00	435.34
669.00	429.10
670.00	440.80
671.00	434.56
672.00	446.26
673.00	420.52
674.00	401.79
675.00	391.65
676.00	410.37
677.00	423.64
678.00	435.34
679.00	427.54
680.00	407.25
681.00	411.15
682.00	411.93
683.00	439.24
684.00	424.42
685.00	432.22
686.00	418.96
687.00	410.37
688.00	400.23
689.00	409.59
690.00	424.42
691.00	447.82
692.00	431.44
693.00	434.56
694.00	431.44
695.00	450.94
696.00	422.08
697.00	418.18
698.00	436.90
699.00	447.82
700.00	454.84
701.00	428.32
702.00	443.92
703.00	436.12
704.00	446.26
705.00	444.70
706.00	444.70
707.00	429.88
708.00	429.88
709.00	420.52
710.00	440.80
711.00	441.58
712.00	411.93
713.00	363.56
714.00	350.30
715.00	376.83
716.00	406.47
717.00	445.48
718.00	500.87
719.00	496.97
720.00	475.91
721.00	434.56
722.00	453.28
723.00	475.91
724.00	475.91
725.00	440.80
726.00	421.30
727.00	401.01
728.00	403.35
729.00	395.55
730.00	399.45
731.00	443.92
732.00	450.94
733.00	474.35
734.00	486.83
735.00	526.62
736.00	507.90
737.00	483.71
738.00	462.65
739.00	473.57
740.00	473.57
741.00	462.65
742.00	462.65
743.00	486.83
744.00	477.47
745.00	480.59
746.00	457.96
747.00	457.96
748.00	437.68
749.00	436.12
750.00	449.38
751.00	475.91
752.00	438.46
753.00	415.06
754.00	413.49
755.00	429.88
756.00	426.76
757.00	420.52
758.00	418.96
759.00	443.92
760.00	459.53
761.00	494.63
762.00	489.17
763.00	485.27
764.00	479.81
765.00	490.73
766.00	449.38
767.00	431.44
768.00	394.77
769.00	398.67
770.00	386.19
771.00	389.31
772.00	391.65
773.00	393.99
774.00	408.81
775.00	421.30
776.00	447.04
777.00	465.77
778.00	485.27
779.00	515.70
780.00	532.08
781.00	574.99
782.00	559.39
783.00	613.22
784.00	568.75
785.00	546.12
786.00	464.99
787.00	443.92
788.00	432.22
789.00	418.96
790.00	433.00
791.00	419.74
792.00	412.71
793.00	415.06
794.00	436.90
795.00	448.60
796.00	437.68
797.00	450.94
798.00	476.69
799.00	509.46
800.00	493.07
801.00	482.15
802.00	450.16
803.00	450.16
804.00	451.72
805.00	453.28
806.00	459.53
807.00	447.04
808.00	442.36
809.00	427.54
810.00	440.02
811.00	433.78
812.00	445.48
813.00	418.96
814.00	442.36
815.00	438.46
816.00	447.82
817.00	436.90
818.00	427.54
819.00	422.86
820.00	415.84
821.00	452.50
822.00	504.78
823.00	545.34
824.00	514.92
825.00	500.09
826.00	486.05
827.00	489.17
828.00	457.18
829.00	448.60
830.00	454.84
831.00	468.11
832.00	465.77
833.00	465.77
834.00	458.75
835.00	461.87
836.00	468.11
837.00	486.05
838.00	466.55
839.00	459.53
840.00	450.16
841.00	488.39
842.00	500.09
843.00	520.38
844.00	485.27
845.00	473.57
846.00	424.42
847.00	417.40
848.00	425.98
849.00	447.82
850.00	473.57
851.00	441.58
852.00	423.64
853.00	407.25
854.00	404.13
855.00	428.32
856.00	440.80
857.00	451.72
858.00	442.36
859.00	425.20
860.00	454.06
861.00	467.33
862.00	489.95
863.00	480.59
864.00	476.69
865.00	468.89
866.00	424.42
867.00	393.99
868.00	379.95
869.00	396.33
870.00	411.93
871.00	393.99
872.00	402.57
873.00	403.35
874.00	425.20
875.00	434.56
876.00	442.36
877.00	464.21
878.00	479.81
879.00	466.55
880.00	438.46
881.00	441.58
882.00	448.60
883.00	462.65
884.00	439.24
885.00	436.90
886.00	427.54
887.00	439.24
888.00	446.26
889.00	438.46
890.00	441.58
891.00	444.70
892.00	455.62
893.00	458.75
894.00	461.87
895.00	461.87
896.00	450.16
897.00	442.36
898.00	458.74
899.00	461.87
900.00	468.89
901.00	457.96
902.00	443.92
903.00	480.59
904.00	582.01
905.00	724.01
906.00	784.08
907.00	763.01
908.00	688.90
909.00	946.36
910.00	985.37
911.00	1086.79
912.00	878.48
913.00	888.62
914.00	852.74
915.00	757.55
916.00	676.41
917.00	558.61
918.00	507.90
919.00	457.18
920.00	468.89
921.00	489.17
922.00	493.85
923.00	476.69
924.00	467.33
925.00	474.35
926.00	488.39
927.00	447.04
928.00	413.49
929.00	414.27
930.00	422.86
931.00	460.31
932.00	443.92
933.00	454.84
934.00	460.31
935.00	447.82
936.00	449.38
937.00	398.67
938.00	430.66
939.00	440.02
940.00	485.27
941.00	460.31
942.00	459.53
943.00	599.18
944.00	1040.76
945.00	1894.27
946.00	2864.04
947.00	3613.01
948.00	3684.00
949.00	3216.68
950.00	2406.07
951.00	1646.18
952.00	1079.77
953.00	764.57
954.00	622.58
955.00	541.44
956.00	472.01
957.00	437.68
958.00	440.02
959.00	443.92
960.00	443.92
961.00	433.00
962.00	454.84
963.00	445.48
964.00	457.18
965.00	431.44
966.00	457.18
967.00	464.21
968.00	464.99
969.00	451.72
970.00	433.78
971.00	439.24
972.00	447.04
973.00	417.40
974.00	408.81
975.00	378.39
976.00	387.75
977.00	397.11
978.00	433.00
979.00	455.62
980.00	451.72
981.00	412.71
982.00	420.52
983.00	448.60
984.00	473.57
985.00	443.14
986.00	411.93
987.00	410.37
988.00	432.22
989.00	447.82
990.00	447.04
991.00	429.88
992.00	435.34
993.00	455.62
994.00	490.73
995.00	483.71
996.00	456.40
997.00	437.68
998.00	450.16
999.00	475.91
1000.00	488.39
1001.00	498.53
1002.00	494.63
1003.00	483.71
1004.00	465.77
1005.00	444.70
1006.00	460.31
1007.00	443.92
1008.00	454.06
1009.00	436.90
1010.00	470.45
1011.00	463.43
1012.00	466.55
1013.00	425.20
1014.00	432.22
1015.00	420.52
1016.00	434.56
1017.00	450.16
1018.00	450.16
1019.00	479.81
1020.00	454.06
1021.00	440.02
1022.00	413.49
1023.00	425.20
1024.00	421.30
1025.00	415.06
1026.00	399.45
1027.00	421.30
1028.00	428.32
1029.00	422.08
1030.00	418.18
1031.00	392.43
1032.00	412.71
1033.00	398.67
1034.00	425.98
1035.00	427.54
1036.00	464.99
1037.00	440.80
1038.00	452.50
1039.00	453.28
1040.00	497.75
1041.00	507.90
1042.00	514.14
1043.00	517.26
1044.00	540.66
1045.00	578.89
1046.00	564.85
1047.00	531.30
1048.00	483.71
1049.00	454.84
1050.00	454.84
1051.00	431.44
1052.00	439.24
1053.00	440.80
1054.00	467.33
1055.00	492.29
1056.00	489.95
1057.00	454.84
1058.00	449.38
1059.00	430.66
1060.00	411.15
1061.00	412.71
1062.00	407.25
1063.00	436.90
1064.00	403.35
1065.00	425.98
1066.00	422.08
1067.00	471.23
1068.00	465.77
1069.00	482.15
1070.00	464.99
1071.00	450.94
1072.00	454.84
1073.00	419.74
1074.00	441.58
1075.00	433.78
1076.00	452.50
1077.00	440.02
1078.00	430.66
1079.00	477.47
1080.00	467.33
1081.00	464.21
1082.00	445.48
1083.00	444.70
1084.00	462.65
1085.00	433.00
1086.00	458.74
1087.00	452.50
1088.00	493.07
1089.00	473.57
1090.00	479.81
1091.00	471.23
1092.00	468.11
1093.00	459.53
1094.00	422.08
1095.00	447.82
1096.00	474.35
1097.00	496.97
1098.00	521.94
1099.00	549.25
1100.00	587.47
1101.00	578.11
1102.00	565.63
1103.00	535.20
1104.00	543.00
1105.00	526.62
1106.00	515.70
1107.00	460.31
1108.00	441.58
1109.00	440.02
1110.00	448.60
1111.00	435.34
1112.00	411.15
1113.00	396.33
1114.00	377.61
1115.00	393.99
1116.00	421.30
1117.00	448.60
1118.00	464.99
1119.00	482.15
1120.00	525.84
1121.00	528.18
1122.00	518.82
1123.00	477.47
1124.00	479.03
1125.00	482.93
1126.00	493.07
1127.00	472.79
1128.00	457.18
1129.00	437.68
1130.00	477.47
1131.00	484.49
1132.00	487.61
1133.00	457.96
1134.00	456.40
1135.00	481.37
1136.00	510.24
1137.00	543.78
1138.00	554.71
1139.00	560.17
1140.00	526.62
1141.00	533.64
1142.00	505.56
1143.00	502.44
1144.00	493.07
1145.00	500.87
1146.00	518.82
1147.00	506.34
1148.00	470.45
1149.00	468.89
1150.00	480.59
1151.00	508.68
1152.00	509.46
1153.00	511.02
1154.00	540.66
1155.00	585.13
1156.00	660.03
1157.00	726.35
1158.00	722.45
1159.00	688.12
1160.00	635.07
1161.00	613.22
1162.00	602.30
1163.00	643.65
1164.00	814.51
1165.00	1097.71
1166.00	1433.97
1167.00	1703.91
1168.00	1716.39
1169.00	1562.70
1170.00	1261.55
1171.00	1013.45
1172.00	800.46
1173.00	660.03
1174.00	571.09
1175.00	539.10
1176.00	578.89
1177.00	610.10
1178.00	635.07
1179.00	581.23
1180.00	564.85
1181.00	557.05
1182.00	580.45
1183.00	611.66
1184.00	609.32
1185.00	626.48
1186.00	632.72
1187.00	660.03
1188.00	667.83
1189.00	699.82
1190.00	770.82
1191.00	830.11
1192.00	862.88
1193.00	857.42
1194.00	872.24
1195.00	851.95
1196.00	826.99
1197.00	826.99
1198.00	903.45
1199.00	1025.15
1200.00	1167.15
1201.00	1372.33
1202.00	1468.30
1203.00	1511.99
1204.00	1412.12
1205.00	1317.72
1206.00	1204.60
1207.00	1126.58
1208.00	1127.36
1209.00	1143.74
1210.00	1181.97
1211.00	1232.68
1212.00	1334.11
1213.00	1469.86
1214.00	1695.33
1215.00	1994.92
1216.00	2564.45
1217.00	5815.45
1218.00	21214.62
1219.00	41946.30
1220.00	59876.36
1221.00	65535.00
1222.00	65535.00
1223.00	65535.00
1224.00	65535.00
1225.00	65298.61
1226.00	56305.49
1227.00	40651.98
1228.00	22059.55
1229.00	10777.39
1230.00	5529.91
1231.00	3215.90
1232.00	2242.23
1233.00	1829.52
1234.00	1652.42
1235.00	1618.87
1236.00	2125.21
1237.00	3787.77
1238.00	7023.17
1239.00	11530.26
1240.00	15250.93
1241.00	16442.26
1242.00	14618.99
1243.00	11233.79
1244.00	7610.64
1245.00	4717.74
1246.00	2739.21
1247.00	1748.38
1248.00	1211.62
1249.00	957.28
1250.00	929.19
1251.00	1009.55
1252.00	1108.63
1253.00	1164.81
1254.00	1238.14
1255.00	1242.04
1256.00	1238.92
1257.00	1144.52
1258.00	1077.43
1259.00	998.63
1260.00	947.92
1261.00	905.79
1262.00	881.60
1263.00	848.05
1264.00	808.26
1265.00	776.28
1266.00	787.98
1267.00	799.68
1268.00	795.78
1269.00	773.16
1270.00	774.72
1271.00	763.01
1272.00	796.56
1273.00	821.53
1274.00	897.99
1275.00	1251.41
1276.00	2988.08
1277.00	7202.61
1278.00	14547.21
1279.00	22811.64
1280.00	28387.58
1281.00	28620.07
1282.00	24304.12
1283.00	17816.16
1284.00	11553.66
1285.00	6667.41
1286.00	3664.50
1287.00	2101.80
1288.00	1323.96
1289.00	986.15
1290.00	889.40
1291.00	848.83
1292.00	870.68
1293.00	858.20
1294.00	896.43
1295.00	1070.40
1296.00	1711.71
1297.00	2974.82
1298.00	4666.25
1299.00	6166.53
1300.00	6803.16
1301.00	6316.33
1302.00	5145.28
1303.00	3694.15
1304.00	2495.79
1305.00	1621.21
1306.00	1210.84
1307.00	1035.30
1308.00	915.93
1309.00	812.95
1310.00	737.27
1311.00	714.64
1312.00	688.12
1313.00	658.47
1314.00	614.00
1315.00	590.60
1316.00	573.43
1317.00	564.85
1318.00	558.61
1319.00	560.95
1320.00	563.29
1321.00	585.91
1322.00	608.54
1323.00	599.96
1324.00	599.96
1325.00	564.07
1326.00	582.79
1327.00	564.07
1328.00	585.91
1329.00	630.38
1330.00	990.83
1331.00	1867.75
1332.00	3431.23
1333.00	5345.78
1334.00	6873.37
1335.00	7347.72
1336.00	6617.47
1337.00	5224.86
1338.00	3710.53
1339.00	2446.64
1340.00	1573.62
1341.00	1048.56
1342.00	816.85
1343.00	694.36
1344.00	674.85
1345.00	648.33
1346.00	632.72
1347.00	624.14
1348.00	621.80
1349.00	614.78
1350.00	638.97
1351.00	660.81
1352.00	699.04
1353.00	709.18
1354.00	698.26
1355.00	713.86
1356.00	727.13
