SpectraSuite Data File
++++++++++++++++++++++++++++++++++++
Date: Thu Nov 16 13:55:17 EST 2017
User: cheriyan
Dark Spectrum Present: No
Reference Spectrum Present: No
Number of Sampled Component Spectra: 1
Spectrometers: USB2+H05261
Integration Time (usec): 100000 (USB2+H05261)
Spectra Averaged: 1 (USB2+H05261)
Boxcar Smoothing: 1 (USB2+H05261)
Correct for Electrical Dark: No (USB2+H05261)
Strobe/Lamp Enabled: No (USB2+H05261)
Correct for Detector Non-linearity: No (USB2+H05261)
Correct for Stray Light: No (USB2+H05261)
Number of Pixels in Processed Spectrum: 2048
>>>>>Begin Processed Spectral Data<<<<<
0.00	411.93
1.00	411.93
2.00	381.51
3.00	337.04
4.00	286.33
5.00	253.56
6.00	234.83
7.00	228.59
8.00	231.71
9.00	255.12
10.00	247.32
11.00	221.57
12.00	214.55
13.00	217.67
14.00	267.60
15.00	260.58
16.00	277.74
17.00	261.36
18.00	248.10
19.00	253.56
20.00	278.52
21.00	295.69
22.00	326.11
23.00	340.94
24.00	374.49
25.00	352.64
26.00	334.70
27.00	341.72
28.00	344.06
29.00	361.22
30.00	350.30
31.00	358.88
32.00	353.42
33.00	383.07
34.00	404.13
35.00	407.25
36.00	389.31
37.00	374.49
38.00	372.93
39.00	359.66
40.00	361.22
41.00	393.99
42.00	440.02
43.00	466.55
44.00	446.26
45.00	426.76
46.00	411.15
47.00	425.98
48.00	437.68
49.00	432.22
50.00	422.08
51.00	411.15
52.00	431.44
53.00	461.09
54.00	452.50
55.00	425.20
56.00	401.79
57.00	396.33
58.00	423.64
59.00	424.42
60.00	426.76
61.00	412.71
62.00	421.30
63.00	418.18
64.00	420.52
65.00	400.23
66.00	400.23
67.00	391.65
68.00	389.31
69.00	386.97
70.00	386.19
71.00	405.69
72.00	412.71
73.00	408.81
74.00	415.84
75.00	400.23
76.00	404.13
77.00	369.80
78.00	394.77
79.00	418.96
80.00	436.12
81.00	432.22
82.00	396.33
83.00	389.31
84.00	380.73
85.00	384.63
86.00	385.41
87.00	399.45
88.00	408.81
89.00	394.77
90.00	386.19
91.00	418.96
92.00	434.56
93.00	439.24
94.00	404.13
95.00	413.49
96.00	423.64
97.00	418.96
98.00	406.47
99.00	391.65
100.00	403.35
101.00	385.41
102.00	383.07
103.00	390.87
104.00	415.84
105.00	427.54
106.00	408.03
107.00	387.75
108.00	376.05
109.00	383.85
110.00	394.77
111.00	416.62
112.00	401.79
113.00	415.06
114.00	376.83
115.00	405.69
116.00	393.99
117.00	428.32
118.00	425.20
119.00	428.32
120.00	403.35
121.00	420.52
122.00	422.08
123.00	438.46
124.00	418.96
125.00	436.12
126.00	415.84
127.00	409.59
128.00	381.51
129.00	376.83
130.00	390.09
131.00	413.49
132.00	457.96
133.00	437.68
134.00	407.25
135.00	397.11
136.00	407.25
137.00	422.08
138.00	417.40
139.00	403.35
140.00	410.37
141.00	402.57
142.00	415.06
143.00	432.22
144.00	463.43
145.00	490.73
146.00	517.26
147.00	516.48
148.00	523.50
149.00	472.01
150.00	456.40
151.00	399.45
152.00	393.21
153.00	375.27
154.00	404.13
155.00	424.42
156.00	429.10
157.00	391.65
158.00	415.84
159.00	398.67
160.00	429.88
161.00	386.19
162.00	407.25
163.00	404.91
164.00	407.25
165.00	398.67
166.00	415.84
167.00	422.08
168.00	411.93
169.00	404.13
170.00	412.71
171.00	420.52
172.00	403.35
173.00	391.65
174.00	404.91
175.00	433.00
176.00	422.86
177.00	404.13
178.00	383.07
179.00	388.53
180.00	410.37
181.00	427.54
182.00	445.48
183.00	432.22
184.00	422.86
185.00	397.11
186.00	388.53
187.00	385.41
188.00	415.06
189.00	405.69
190.00	389.31
191.00	372.15
192.00	413.49
193.00	440.02
194.00	472.79
195.00	496.97
196.00	528.18
197.00	533.64
198.00	497.75
199.00	490.73
200.00	472.01
201.00	479.81
202.00	450.94
203.00	417.40
204.00	395.55
205.00	391.65
206.00	427.54
207.00	418.18
208.00	400.23
209.00	375.27
210.00	382.29
211.00	401.79
212.00	411.93
213.00	411.15
214.00	389.31
215.00	410.37
216.00	425.98
217.00	437.68
218.00	423.64
219.00	401.01
220.00	393.21
221.00	383.07
222.00	371.36
223.00	373.71
224.00	384.63
225.00	419.74
226.00	433.78
227.00	431.44
228.00	440.02
229.00	441.58
230.00	418.18
231.00	365.12
232.00	340.16
233.00	372.15
234.00	399.45
235.00	418.18
236.00	364.34
237.00	364.34
238.00	367.46
239.00	422.08
240.00	422.08
241.00	426.76
242.00	419.74
243.00	415.84
244.00	422.08
245.00	389.31
246.00	399.45
247.00	411.93
248.00	453.28
249.00	462.65
250.00	421.30
251.00	423.64
252.00	425.98
253.00	452.50
254.00	457.18
255.00	470.45
256.00	483.71
257.00	494.63
258.00	499.31
259.00	494.63
260.00	460.31
261.00	411.93
262.00	409.59
263.00	419.74
264.00	454.06
265.00	459.53
266.00	496.97
267.00	550.81
268.00	554.71
269.00	542.22
270.00	546.91
271.00	601.52
272.00	650.67
273.00	672.51
274.00	671.73
275.00	642.09
276.00	598.40
277.00	560.17
278.00	535.98
279.00	507.12
280.00	516.48
281.00	494.63
282.00	472.79
283.00	436.12
284.00	425.20
285.00	391.65
286.00	368.24
287.00	401.79
288.00	441.58
289.00	439.24
290.00	399.45
291.00	399.45
292.00	404.13
293.00	433.78
294.00	413.49
295.00	418.18
296.00	376.05
297.00	404.91
298.00	416.62
299.00	424.42
300.00	410.37
301.00	410.37
302.00	415.06
303.00	396.33
304.00	383.85
305.00	418.96
306.00	447.04
307.00	532.86
308.00	623.36
309.00	680.32
310.00	670.95
311.00	610.10
312.00	550.03
313.00	506.34
314.00	457.18
315.00	470.45
316.00	452.50
317.00	459.53
318.00	439.24
319.00	443.14
320.00	418.96
321.00	410.37
322.00	397.89
323.00	433.00
324.00	452.50
325.00	447.04
326.00	416.62
327.00	396.33
328.00	416.62
329.00	427.54
330.00	422.08
331.00	422.08
332.00	413.49
333.00	412.71
334.00	399.45
335.00	404.13
336.00	417.40
337.00	415.06
338.00	407.25
339.00	412.71
340.00	411.93
341.00	447.04
342.00	454.84
343.00	450.94
344.00	447.04
345.00	454.84
346.00	519.60
347.00	606.98
348.00	697.48
349.00	739.61
350.00	706.06
351.00	652.23
352.00	589.82
353.00	567.19
354.00	539.88
355.00	534.42
356.00	508.68
357.00	480.59
358.00	468.89
359.00	440.02
360.00	432.22
361.00	427.54
362.00	435.34
363.00	452.50
364.00	430.66
365.00	428.32
366.00	428.32
367.00	426.76
368.00	443.92
369.00	431.44
370.00	431.44
371.00	421.30
372.00	427.54
373.00	433.78
374.00	440.02
375.00	420.52
376.00	435.34
377.00	410.37
378.00	411.93
379.00	383.07
380.00	396.33
381.00	408.81
382.00	437.68
383.00	430.66
384.00	435.34
385.00	419.74
386.00	404.13
387.00	403.35
388.00	413.49
389.00	441.58
390.00	451.72
391.00	437.68
392.00	425.98
393.00	412.71
394.00	430.66
395.00	443.92
396.00	430.66
397.00	423.64
398.00	433.00
399.00	429.10
400.00	413.49
401.00	390.87
402.00	406.47
403.00	415.06
404.00	406.47
405.00	417.40
406.00	402.57
407.00	413.49
408.00	412.71
409.00	429.88
410.00	431.44
411.00	401.01
412.00	422.86
413.00	415.84
414.00	437.68
415.00	392.43
416.00	380.73
417.00	394.77
418.00	422.86
419.00	437.68
420.00	412.71
421.00	410.37
422.00	379.17
423.00	386.19
424.00	372.15
425.00	419.74
426.00	432.22
427.00	447.82
428.00	448.60
429.00	447.04
430.00	454.06
431.00	438.46
432.00	428.32
433.00	422.08
434.00	430.66
435.00	444.70
436.00	428.32
437.00	436.12
438.00	425.98
439.00	460.31
440.00	454.84
441.00	465.77
442.00	447.82
443.00	444.70
444.00	457.18
445.00	465.77
446.00	455.62
447.00	442.36
448.00	440.80
449.00	433.78
450.00	447.04
451.00	425.20
452.00	440.02
453.00	430.66
454.00	441.58
455.00	440.02
456.00	448.60
457.00	446.26
458.00	446.26
459.00	433.78
460.00	447.04
461.00	434.56
462.00	403.35
463.00	371.36
464.00	355.76
465.00	378.39
466.00	382.29
467.00	393.21
468.00	395.55
469.00	415.84
470.00	432.22
471.00	461.09
472.00	467.33
473.00	456.40
474.00	430.66
475.00	442.36
476.00	450.16
477.00	454.06
478.00	441.58
479.00	454.06
480.00	439.24
481.00	445.48
482.00	443.92
483.00	443.14
484.00	447.04
485.00	452.50
486.00	477.47
487.00	453.28
488.00	449.38
489.00	437.68
490.00	454.06
491.00	438.46
492.00	438.46
493.00	424.42
494.00	418.96
495.00	428.32
496.00	403.35
497.00	433.00
498.00	415.06
499.00	440.02
500.00	401.01
501.00	408.03
502.00	409.59
503.00	429.88
504.00	436.90
505.00	433.78
506.00	447.04
507.00	436.12
508.00	443.92
509.00	428.32
510.00	445.48
511.00	451.72
512.00	457.18
513.00	447.82
514.00	422.86
515.00	417.40
516.00	416.62
517.00	438.46
518.00	455.62
519.00	456.40
520.00	468.11
521.00	439.24
522.00	431.44
523.00	400.23
524.00	401.79
525.00	393.99
526.00	396.33
527.00	422.86
528.00	421.30
529.00	433.00
530.00	389.31
531.00	399.45
532.00	410.37
533.00	425.20
534.00	435.34
535.00	397.89
536.00	406.47
537.00	405.69
538.00	439.24
539.00	440.80
540.00	447.82
541.00	442.36
542.00	447.82
543.00	449.38
544.00	442.36
545.00	433.00
546.00	408.81
547.00	422.86
548.00	429.10
549.00	450.94
550.00	446.26
551.00	429.10
552.00	454.84
553.00	450.16
554.00	496.97
555.00	467.33
556.00	470.45
557.00	436.12
558.00	450.16
559.00	459.53
560.00	467.33
561.00	441.58
562.00	397.11
563.00	401.79
564.00	412.71
565.00	445.48
566.00	446.26
567.00	450.94
568.00	449.38
569.00	436.90
570.00	440.80
571.00	450.94
572.00	438.46
573.00	420.52
574.00	418.18
575.00	474.35
576.00	464.99
577.00	479.03
578.00	436.12
579.00	438.46
580.00	412.71
581.00	410.37
582.00	415.06
583.00	398.67
584.00	399.45
585.00	405.69
586.00	433.00
587.00	422.86
588.00	417.40
589.00	402.57
590.00	399.45
591.00	408.03
592.00	405.69
593.00	416.62
594.00	401.01
595.00	400.23
596.00	416.62
597.00	416.62
598.00	431.44
599.00	428.32
600.00	436.90
601.00	424.42
602.00	420.52
603.00	411.93
604.00	406.47
605.00	397.11
606.00	422.86
607.00	461.87
608.00	477.47
609.00	454.06
610.00	429.88
611.00	419.74
612.00	443.92
613.00	450.94
614.00	466.55
615.00	458.75
616.00	460.31
617.00	450.94
618.00	422.08
619.00	405.69
620.00	390.09
621.00	391.65
622.00	403.35
623.00	428.32
624.00	446.26
625.00	462.65
626.00	440.02
627.00	433.78
628.00	428.32
629.00	444.70
630.00	453.28
631.00	422.08
632.00	404.91
633.00	419.74
634.00	436.12
635.00	454.06
636.00	435.34
637.00	418.18
638.00	408.03
639.00	438.46
640.00	464.99
641.00	490.73
642.00	455.62
643.00	450.94
644.00	424.42
645.00	433.78
646.00	424.42
647.00	419.74
648.00	415.06
649.00	423.64
650.00	442.36
651.00	451.72
652.00	441.58
653.00	443.92
654.00	478.25
655.00	498.53
656.00	509.46
657.00	451.72
658.00	424.42
659.00	413.49
660.00	419.74
661.00	431.44
662.00	430.66
663.00	435.34
664.00	439.24
665.00	415.84
666.00	405.69
667.00	410.37
668.00	400.23
669.00	411.15
670.00	416.62
671.00	417.40
672.00	428.32
673.00	437.68
674.00	460.31
675.00	434.56
676.00	395.55
677.00	404.13
678.00	418.18
679.00	435.34
680.00	437.68
681.00	463.43
682.00	440.80
683.00	402.57
684.00	378.39
685.00	382.29
686.00	393.99
687.00	392.43
688.00	415.06
689.00	448.60
690.00	458.75
691.00	453.28
692.00	433.00
693.00	434.56
694.00	439.24
695.00	454.06
696.00	443.92
697.00	441.58
698.00	423.64
699.00	433.78
700.00	461.87
701.00	472.01
702.00	457.18
703.00	434.56
704.00	444.70
705.00	445.48
706.00	449.38
707.00	442.36
708.00	455.62
709.00	447.82
710.00	424.42
711.00	426.76
712.00	443.14
713.00	460.31
714.00	471.23
715.00	457.96
716.00	457.96
717.00	417.40
718.00	470.45
719.00	472.79
720.00	499.31
721.00	440.02
722.00	434.56
723.00	422.86
724.00	415.06
725.00	425.20
726.00	425.98
727.00	429.10
728.00	407.25
729.00	409.59
730.00	415.84
731.00	441.58
732.00	432.22
733.00	467.33
734.00	468.89
735.00	530.52
736.00	514.92
737.00	532.08
738.00	496.97
739.00	508.68
740.00	464.21
741.00	481.37
742.00	460.31
743.00	475.13
744.00	451.72
745.00	438.46
746.00	459.53
747.00	461.87
748.00	470.45
749.00	422.08
750.00	433.78
751.00	439.24
752.00	456.40
753.00	418.18
754.00	416.62
755.00	415.84
756.00	436.12
757.00	424.42
758.00	442.36
759.00	447.82
760.00	479.81
761.00	481.37
762.00	479.81
763.00	474.35
764.00	461.87
765.00	449.38
766.00	440.02
767.00	423.64
768.00	424.42
769.00	396.33
770.00	400.23
771.00	412.71
772.00	455.62
773.00	484.49
774.00	488.39
775.00	481.37
776.00	472.01
777.00	440.80
778.00	429.10
779.00	450.16
780.00	520.38
781.00	548.47
782.00	561.73
783.00	621.02
784.00	614.78
785.00	578.89
786.00	464.21
787.00	424.42
788.00	418.96
789.00	429.88
790.00	443.92
791.00	450.16
792.00	425.98
793.00	415.06
794.00	400.23
795.00	404.13
796.00	412.71
797.00	422.86
798.00	454.84
799.00	465.77
800.00	471.23
801.00	473.57
802.00	481.37
803.00	461.09
804.00	445.48
805.00	445.48
806.00	457.96
807.00	441.58
808.00	425.98
809.00	414.27
810.00	423.64
811.00	418.96
812.00	414.27
813.00	418.96
814.00	406.47
815.00	443.92
816.00	451.72
817.00	491.51
818.00	450.16
819.00	436.12
820.00	417.40
821.00	459.53
822.00	493.85
823.00	509.46
824.00	489.17
825.00	493.07
826.00	483.71
827.00	490.73
828.00	482.93
829.00	479.81
830.00	482.15
831.00	455.62
832.00	436.12
833.00	447.82
834.00	475.13
835.00	479.03
836.00	450.94
837.00	448.60
838.00	472.79
839.00	487.61
840.00	476.69
841.00	471.23
842.00	467.33
843.00	466.55
844.00	489.17
845.00	495.41
846.00	478.25
847.00	450.16
848.00	454.06
849.00	439.24
850.00	411.93
851.00	404.13
852.00	421.30
853.00	455.62
854.00	450.94
855.00	450.94
856.00	415.84
857.00	404.91
858.00	406.47
859.00	414.27
860.00	461.09
861.00	476.69
862.00	489.95
863.00	463.43
864.00	463.43
865.00	448.60
866.00	439.24
867.00	446.26
868.00	464.99
869.00	461.09
870.00	433.00
871.00	443.92
872.00	457.18
873.00	465.77
874.00	447.82
875.00	443.92
876.00	436.90
877.00	441.58
878.00	451.72
879.00	454.84
880.00	446.26
881.00	434.56
882.00	434.56
883.00	461.87
884.00	454.84
885.00	469.67
886.00	452.50
887.00	454.06
888.00	444.70
889.00	443.92
890.00	443.92
891.00	425.98
892.00	400.23
893.00	410.37
894.00	412.71
895.00	464.21
896.00	447.04
897.00	451.72
898.00	439.24
899.00	468.89
900.00	471.23
901.00	461.87
902.00	496.19
903.00	567.19
904.00	671.73
905.00	738.83
906.00	805.14
907.00	774.72
908.00	749.75
909.00	965.08
910.00	1006.43
911.00	1067.28
912.00	902.67
913.00	924.51
914.00	878.48
915.00	757.55
916.00	655.35
917.00	564.85
918.00	511.80
919.00	450.94
920.00	415.84
921.00	414.27
922.00	456.40
923.00	470.45
924.00	486.05
925.00	461.87
926.00	470.45
927.00	444.70
928.00	444.70
929.00	426.76
930.00	432.22
931.00	418.18
932.00	461.09
933.00	464.21
934.00	496.19
935.00	495.41
936.00	487.61
937.00	482.93
938.00	440.02
939.00	443.14
940.00	436.90
941.00	443.14
942.00	488.39
943.00	629.60
944.00	1053.24
945.00	1873.99
946.00	2906.95
947.00	3712.09
948.00	3749.54
949.00	3195.61
950.00	2315.57
951.00	1579.08
952.00	1012.67
953.00	709.96
954.00	558.61
955.00	508.68
956.00	464.99
957.00	455.62
958.00	433.00
959.00	443.92
960.00	434.56
961.00	455.62
962.00	447.04
963.00	440.80
964.00	425.20
965.00	454.06
966.00	461.87
967.00	475.91
968.00	467.33
969.00	452.50
970.00	454.06
971.00	424.42
972.00	452.50
973.00	437.68
974.00	429.88
975.00	390.87
976.00	366.68
977.00	384.63
978.00	416.62
979.00	463.43
980.00	479.81
981.00	468.89
982.00	448.60
983.00	451.72
984.00	457.18
985.00	440.02
986.00	422.86
987.00	415.84
988.00	425.98
989.00	415.84
990.00	423.64
991.00	399.45
992.00	389.31
993.00	386.97
994.00	429.10
995.00	454.84
996.00	469.67
997.00	466.55
998.00	456.40
999.00	440.80
1000.00	459.53
1001.00	469.67
1002.00	493.85
1003.00	487.61
1004.00	499.31
1005.00	504.78
1006.00	480.59
1007.00	472.01
1008.00	447.04
1009.00	472.01
1010.00	472.79
1011.00	464.21
1012.00	449.38
1013.00	431.44
1014.00	445.48
1015.00	446.26
1016.00	442.36
1017.00	448.60
1018.00	454.06
1019.00	454.84
1020.00	437.68
1021.00	434.56
1022.00	444.70
1023.00	474.35
1024.00	475.91
1025.00	466.55
1026.00	447.04
1027.00	436.90
1028.00	437.68
1029.00	431.44
1030.00	440.80
1031.00	432.22
1032.00	445.48
1033.00	458.74
1034.00	489.17
1035.00	471.23
1036.00	441.58
1037.00	425.20
1038.00	443.14
1039.00	440.80
1040.00	454.06
1041.00	457.18
1042.00	483.71
1043.00	509.46
1044.00	487.61
1045.00	517.26
1046.00	495.41
1047.00	505.56
1048.00	459.53
1049.00	444.70
1050.00	487.61
1051.00	479.81
1052.00	461.87
1053.00	392.43
1054.00	387.75
1055.00	402.57
1056.00	425.98
1057.00	452.50
1058.00	446.26
1059.00	466.55
1060.00	474.35
1061.00	482.15
1062.00	475.91
1063.00	463.43
1064.00	459.53
1065.00	427.54
1066.00	409.59
1067.00	432.22
1068.00	450.16
1069.00	468.11
1070.00	439.24
1071.00	425.98
1072.00	422.08
1073.00	438.46
1074.00	454.84
1075.00	460.31
1076.00	468.11
1077.00	458.74
1078.00	472.01
1079.00	474.35
1080.00	479.03
1081.00	466.55
1082.00	462.65
1083.00	451.72
1084.00	429.88
1085.00	423.64
1086.00	468.11
1087.00	433.78
1088.00	425.20
1089.00	397.89
1090.00	459.53
1091.00	460.31
1092.00	484.49
1093.00	483.71
1094.00	488.39
1095.00	472.79
1096.00	459.53
1097.00	469.67
1098.00	467.33
1099.00	505.56
1100.00	546.12
1101.00	557.83
1102.00	562.51
1103.00	532.08
1104.00	546.91
1105.00	521.94
1106.00	525.84
1107.00	490.73
1108.00	476.69
1109.00	459.53
1110.00	436.90
1111.00	453.28
1112.00	472.79
1113.00	500.09
1114.00	462.65
1115.00	422.08
1116.00	430.66
1117.00	448.60
1118.00	469.67
1119.00	481.37
1120.00	526.62
1121.00	564.85
1122.00	592.94
1123.00	578.11
1124.00	548.47
1125.00	514.92
1126.00	483.71
1127.00	484.49
1128.00	485.27
1129.00	493.07
1130.00	502.43
1131.00	471.23
1132.00	447.82
1133.00	398.67
1134.00	421.30
1135.00	427.54
1136.00	485.27
1137.00	500.09
1138.00	527.40
1139.00	532.08
1140.00	535.20
1141.00	525.06
1142.00	462.65
1143.00	421.30
1144.00	433.78
1145.00	450.16
1146.00	493.07
1147.00	503.22
1148.00	502.43
1149.00	495.41
1150.00	504.78
1151.00	526.62
1152.00	514.14
1153.00	512.58
1154.00	525.84
1155.00	585.91
1156.00	624.14
1157.00	700.60
1158.00	715.42
1159.00	714.64
1160.00	671.73
1161.00	610.88
1162.00	574.21
1163.00	592.16
1164.00	775.50
1165.00	1057.14
1166.00	1392.62
1167.00	1632.91
1168.00	1651.64
1169.00	1526.03
1170.00	1286.51
1171.00	1074.31
1172.00	881.60
1173.00	719.32
1174.00	635.85
1175.00	605.42
1176.00	607.76
1177.00	612.44
1178.00	576.55
1179.00	571.87
1180.00	572.65
1181.00	606.98
1182.00	615.56
1183.00	658.47
1184.00	646.77
1185.00	635.07
1186.00	638.97
1187.00	661.59
1188.00	681.10
1189.00	711.52
1190.00	757.55
1191.00	847.27
1192.00	864.44
1193.00	918.27
1194.00	894.86
1195.00	878.48
1196.00	848.05
1197.00	861.32
1198.00	917.49
1199.00	1033.74
1200.00	1235.80
1201.00	1401.20
1202.00	1494.04
1203.00	1473.76
1204.00	1416.02
1205.00	1297.44
1206.00	1180.41
1207.00	1115.66
1208.00	1131.26
1209.00	1188.99
1210.00	1189.77
1211.00	1211.62
1212.00	1306.02
1213.00	1481.56
1214.00	1694.55
1215.00	1987.11
1216.00	2553.52
1217.00	5842.76
1218.00	21196.67
1219.00	41924.46
1220.00	59845.16
1221.00	65535.00
1222.00	65535.00
1223.00	65535.00
1224.00	65535.00
1225.00	65350.10
1226.00	56311.73
1227.00	40616.88
1228.00	22025.22
1229.00	10740.72
1230.00	5515.86
1231.00	3130.08
1232.00	2220.39
1233.00	1846.68
1234.00	1675.04
1235.00	1644.62
1236.00	2119.75
1237.00	3815.07
1238.00	7175.30
1239.00	11634.02
1240.00	15218.16
1241.00	16246.44
1242.00	14551.11
1243.00	11296.99
1244.00	7757.32
1245.00	4828.53
1246.00	2837.51
1247.00	1771.01
1248.00	1197.57
1249.00	972.88
1250.00	934.65
1251.00	992.39
1252.00	1060.26
1253.00	1141.40
1254.00	1222.54
1255.00	1231.90
1256.00	1191.33
1257.00	1118.00
1258.00	1032.96
1259.00	976.00
1260.00	916.71
1261.00	866.78
1262.00	844.93
1263.00	834.79
1264.00	842.59
1265.00	798.90
1266.00	755.99
1267.00	714.64
1268.00	724.79
1269.00	747.41
1270.00	784.86
1271.00	798.90
1272.00	819.97
1273.00	826.99
1274.00	847.27
1275.00	1238.14
1276.00	3009.93
1277.00	7208.85
1278.00	14595.58
1279.00	22782.77
1280.00	28420.34
1281.00	28523.33
1282.00	24351.71
1283.00	17880.91
1284.00	11726.08
1285.00	6699.39
1286.00	3687.90
1287.00	2075.28
1288.00	1346.59
1289.00	1002.53
1290.00	878.48
1291.00	862.88
1292.00	873.02
1293.00	903.45
1294.00	956.50
1295.00	1126.58
1296.00	1717.17
1297.00	2930.35
1298.00	4627.24
1299.00	6192.28
1300.00	6825.00
1301.00	6396.68
1302.00	5211.59
1303.00	3736.28
1304.00	2483.31
1305.00	1561.92
1306.00	1171.05
1307.00	969.76
1308.00	918.27
1309.00	858.20
1310.00	798.12
1311.00	724.01
1312.00	670.95
1313.00	655.35
1314.00	636.63
1315.00	628.04
1316.00	605.42
1317.00	582.79
1318.00	567.97
1319.00	592.94
1320.00	569.53
1321.00	556.27
1322.00	531.30
1323.00	553.93
1324.00	571.87
1325.00	573.43
1326.00	574.21
1327.00	572.65
1328.00	582.79
1329.00	649.11
1330.00	1014.23
1331.00	1930.16
1332.00	3526.41
1333.00	5486.22
1334.00	7019.27
1335.00	7389.07
1336.00	6631.52
1337.00	5213.15
1338.00	3747.20
1339.00	2429.48
1340.00	1510.43
1341.00	994.73
1342.00	766.92
1343.00	667.83
1344.00	640.53
1345.00	677.20
1346.00	671.73
1347.00	672.51
1348.00	635.85
1349.00	597.62
1350.00	621.80
1351.00	620.24
1352.00	689.68
1353.00	681.10
1354.00	720.88
1355.00	724.01
1356.00	776.28
