SpectraSuite Data File
++++++++++++++++++++++++++++++++++++
Date: Thu Nov 16 13:55:17 EST 2017
User: cheriyan
Dark Spectrum Present: No
Reference Spectrum Present: No
Number of Sampled Component Spectra: 1
Spectrometers: USB2+H05261
Integration Time (usec): 100000 (USB2+H05261)
Spectra Averaged: 1 (USB2+H05261)
Boxcar Smoothing: 1 (USB2+H05261)
Correct for Electrical Dark: No (USB2+H05261)
Strobe/Lamp Enabled: No (USB2+H05261)
Correct for Detector Non-linearity: No (USB2+H05261)
Correct for Stray Light: No (USB2+H05261)
Number of Pixels in Processed Spectrum: 2048
>>>>>Begin Processed Spectral Data<<<<<
0.00	341.72
1.00	341.72
2.00	328.46
3.00	297.25
4.00	281.64
5.00	265.26
6.00	267.60
7.00	260.58
8.00	264.48
9.00	254.34
10.00	244.98
11.00	214.55
12.00	237.95
13.00	214.55
14.00	230.15
15.00	207.53
16.00	219.23
17.00	259.02
18.00	289.45
19.00	287.11
20.00	272.28
21.00	252.00
22.00	296.47
23.00	328.46
24.00	382.29
25.00	389.31
26.00	378.39
27.00	358.10
28.00	373.71
29.00	382.29
30.00	377.61
31.00	331.58
32.00	340.16
33.00	376.83
34.00	436.12
35.00	425.20
36.00	418.96
37.00	408.81
38.00	416.62
39.00	402.57
40.00	394.77
41.00	388.53
42.00	388.53
43.00	408.81
44.00	409.59
45.00	418.96
46.00	397.11
47.00	406.47
48.00	415.06
49.00	428.32
50.00	409.59
51.00	427.54
52.00	433.78
53.00	450.94
54.00	431.44
55.00	422.08
56.00	419.74
57.00	401.01
58.00	391.65
59.00	381.51
60.00	378.39
61.00	394.77
62.00	405.69
63.00	432.22
64.00	431.44
65.00	441.58
66.00	442.36
67.00	438.46
68.00	431.44
69.00	412.71
70.00	408.03
71.00	406.47
72.00	397.11
73.00	379.17
74.00	376.05
75.00	380.73
76.00	416.62
77.00	419.74
78.00	419.74
79.00	405.69
80.00	405.69
81.00	438.46
82.00	413.49
83.00	407.25
84.00	377.61
85.00	403.35
86.00	399.45
87.00	408.81
88.00	429.88
89.00	425.20
90.00	425.98
91.00	393.21
92.00	380.73
93.00	363.56
94.00	365.90
95.00	396.33
96.00	407.25
97.00	397.11
98.00	385.41
99.00	372.93
100.00	397.11
101.00	386.19
102.00	410.37
103.00	391.65
104.00	415.06
105.00	410.37
106.00	415.06
107.00	420.52
108.00	401.79
109.00	418.96
110.00	383.85
111.00	400.23
112.00	388.53
113.00	392.43
114.00	387.75
115.00	390.87
116.00	450.16
117.00	433.00
118.00	443.92
119.00	417.40
120.00	439.24
121.00	428.32
122.00	433.00
123.00	468.11
124.00	456.40
125.00	443.92
126.00	373.71
127.00	386.19
128.00	387.75
129.00	443.92
130.00	420.52
131.00	436.90
132.00	422.86
133.00	447.82
134.00	430.66
135.00	412.71
136.00	422.86
137.00	429.10
138.00	425.20
139.00	421.30
140.00	410.37
141.00	411.15
142.00	409.59
143.00	402.57
144.00	430.66
145.00	457.18
146.00	509.46
147.00	529.74
148.00	500.09
149.00	477.47
150.00	436.12
151.00	413.49
152.00	411.93
153.00	418.96
154.00	467.33
155.00	453.28
156.00	443.92
157.00	409.59
158.00	417.40
159.00	432.22
160.00	411.15
161.00	380.73
162.00	385.41
163.00	393.99
164.00	422.86
165.00	399.45
166.00	404.91
167.00	400.23
168.00	414.27
169.00	427.54
170.00	427.54
171.00	427.54
172.00	414.27
173.00	432.22
174.00	425.98
175.00	436.90
176.00	409.59
177.00	403.35
178.00	399.45
179.00	402.57
180.00	411.93
181.00	433.78
182.00	462.65
183.00	465.77
184.00	418.18
185.00	406.47
186.00	379.17
187.00	404.13
188.00	382.29
189.00	402.57
190.00	411.15
191.00	403.35
192.00	401.79
193.00	418.18
194.00	462.65
195.00	482.93
196.00	505.56
197.00	510.24
198.00	516.48
199.00	507.90
200.00	487.61
201.00	464.99
202.00	423.64
203.00	390.09
204.00	399.45
205.00	411.93
206.00	425.98
207.00	412.71
208.00	409.59
209.00	409.59
210.00	414.27
211.00	379.95
212.00	365.12
213.00	362.78
214.00	393.99
215.00	418.18
216.00	415.84
217.00	424.42
218.00	431.44
219.00	450.16
220.00	441.58
221.00	413.49
222.00	383.85
223.00	381.51
224.00	384.63
225.00	418.18
226.00	401.01
227.00	395.55
228.00	365.12
229.00	389.31
230.00	405.69
231.00	430.66
232.00	429.88
233.00	443.14
234.00	422.86
235.00	429.88
236.00	405.69
237.00	422.08
238.00	433.78
239.00	438.46
240.00	411.93
241.00	386.19
242.00	396.33
243.00	411.15
244.00	419.74
245.00	386.97
246.00	385.41
247.00	396.33
248.00	420.52
249.00	418.18
250.00	395.55
251.00	410.37
252.00	415.84
253.00	434.56
254.00	443.92
255.00	460.31
256.00	454.84
257.00	458.75
258.00	463.43
259.00	455.62
260.00	430.66
261.00	415.06
262.00	408.81
263.00	433.78
264.00	431.44
265.00	442.36
266.00	426.76
267.00	490.73
268.00	551.59
269.00	578.89
270.00	560.17
271.00	545.34
272.00	546.91
273.00	560.95
274.00	564.07
275.00	593.72
276.00	564.85
277.00	554.71
278.00	537.54
279.00	549.25
280.00	548.47
281.00	516.48
282.00	490.73
283.00	460.31
284.00	458.75
285.00	425.20
286.00	403.35
287.00	376.83
288.00	409.59
289.00	408.81
290.00	404.13
291.00	372.93
292.00	372.15
293.00	385.41
294.00	407.25
295.00	429.10
296.00	447.04
297.00	450.16
298.00	435.34
299.00	411.93
300.00	385.41
301.00	388.53
302.00	400.23
303.00	409.59
304.00	400.23
305.00	411.15
306.00	452.50
307.00	529.74
308.00	606.20
309.00	660.81
310.00	669.39
311.00	641.31
312.00	567.97
313.00	499.31
314.00	448.60
315.00	460.31
316.00	475.91
317.00	473.57
318.00	437.68
319.00	429.88
320.00	425.98
321.00	433.78
322.00	420.52
323.00	429.88
324.00	436.90
325.00	417.40
326.00	399.45
327.00	409.59
328.00	442.36
329.00	454.06
330.00	438.46
331.00	452.50
332.00	440.02
333.00	430.66
334.00	405.69
335.00	420.52
336.00	436.90
337.00	453.28
338.00	454.06
339.00	458.74
340.00	439.24
341.00	441.58
342.00	427.54
343.00	435.34
344.00	411.93
345.00	432.22
346.00	518.04
347.00	615.56
348.00	715.42
349.00	735.71
350.00	724.01
351.00	645.99
352.00	594.50
353.00	584.35
354.00	568.75
355.00	546.12
356.00	496.97
357.00	485.27
358.00	442.36
359.00	433.78
360.00	425.20
361.00	438.46
362.00	434.56
363.00	429.88
364.00	405.69
365.00	425.20
366.00	408.81
367.00	426.76
368.00	445.48
369.00	469.67
370.00	472.01
371.00	452.50
372.00	429.10
373.00	419.74
374.00	387.75
375.00	383.85
376.00	365.90
377.00	379.17
378.00	390.09
379.00	404.91
380.00	390.87
381.00	397.11
382.00	404.91
383.00	410.37
384.00	394.77
385.00	383.85
386.00	379.17
387.00	376.05
388.00	401.01
389.00	411.93
390.00	442.36
391.00	435.34
392.00	410.37
393.00	417.40
394.00	433.00
395.00	474.35
396.00	482.93
397.00	474.35
398.00	475.91
399.00	455.62
400.00	440.02
401.00	411.15
402.00	408.81
403.00	418.96
404.00	450.16
405.00	464.99
406.00	479.03
407.00	457.96
408.00	431.44
409.00	408.03
410.00	401.79
411.00	392.43
412.00	394.77
413.00	394.77
414.00	417.40
415.00	406.47
416.00	420.52
417.00	412.71
418.00	409.59
419.00	415.06
420.00	417.40
421.00	429.88
422.00	398.67
423.00	404.91
424.00	431.44
425.00	455.62
426.00	443.14
427.00	419.74
428.00	422.08
429.00	426.76
430.00	436.90
431.00	419.74
432.00	436.12
433.00	425.20
434.00	433.00
435.00	420.52
436.00	413.49
437.00	412.71
438.00	411.15
439.00	399.45
440.00	401.79
441.00	442.36
442.00	471.23
443.00	463.43
444.00	430.66
445.00	422.86
446.00	422.08
447.00	426.76
448.00	432.22
449.00	474.35
450.00	461.09
451.00	449.38
452.00	420.52
453.00	423.64
454.00	433.00
455.00	436.90
456.00	448.60
457.00	429.10
458.00	420.52
459.00	404.13
460.00	405.69
461.00	395.55
462.00	390.09
463.00	389.31
464.00	412.71
465.00	440.02
466.00	472.01
467.00	442.36
468.00	441.58
469.00	441.58
470.00	479.81
471.00	475.13
472.00	466.55
473.00	443.14
474.00	433.78
475.00	418.18
476.00	424.42
477.00	416.62
478.00	433.78
479.00	451.72
480.00	434.56
481.00	419.74
482.00	405.69
483.00	422.86
484.00	437.68
485.00	419.74
486.00	447.82
487.00	448.60
488.00	463.43
489.00	444.70
490.00	423.64
491.00	417.40
492.00	431.44
493.00	450.94
494.00	483.71
495.00	463.43
496.00	452.50
497.00	425.20
498.00	440.80
499.00	435.34
500.00	460.31
501.00	467.33
502.00	470.45
503.00	429.88
504.00	404.13
505.00	408.03
506.00	449.38
507.00	447.04
508.00	455.62
509.00	416.62
510.00	426.76
511.00	428.32
512.00	454.84
513.00	464.21
514.00	457.96
515.00	448.60
516.00	443.92
517.00	428.32
518.00	411.15
519.00	421.30
520.00	422.08
521.00	429.88
522.00	407.25
523.00	415.84
524.00	431.44
525.00	457.18
526.00	464.99
527.00	447.82
528.00	421.30
529.00	391.65
530.00	379.95
531.00	409.59
532.00	443.92
533.00	441.58
534.00	424.42
535.00	390.09
536.00	405.69
537.00	414.27
538.00	418.96
539.00	428.32
540.00	386.97
541.00	372.93
542.00	372.93
543.00	415.06
544.00	454.06
545.00	434.56
546.00	445.48
547.00	463.43
548.00	483.71
549.00	465.77
550.00	439.24
551.00	447.82
552.00	459.53
553.00	451.72
554.00	418.96
555.00	430.66
556.00	492.29
557.00	528.18
558.00	506.34
559.00	436.12
560.00	425.20
561.00	417.40
562.00	433.78
563.00	422.86
564.00	425.20
565.00	433.78
566.00	435.34
567.00	457.18
568.00	442.36
569.00	443.14
570.00	429.88
571.00	451.72
572.00	450.94
573.00	440.80
574.00	429.10
575.00	444.70
576.00	449.38
577.00	465.77
578.00	459.53
579.00	442.36
580.00	425.20
581.00	425.20
582.00	433.00
583.00	455.62
584.00	443.92
585.00	448.60
586.00	426.76
587.00	424.42
588.00	431.44
589.00	435.34
590.00	434.56
591.00	437.68
592.00	425.98
593.00	429.10
594.00	386.19
595.00	381.51
596.00	380.73
597.00	409.59
598.00	420.52
599.00	423.64
600.00	449.38
601.00	442.36
602.00	432.22
603.00	391.65
604.00	401.01
605.00	404.91
606.00	424.42
607.00	412.71
608.00	418.18
609.00	400.23
610.00	397.89
611.00	387.75
612.00	394.77
613.00	406.47
614.00	433.00
615.00	424.42
616.00	425.98
617.00	397.89
618.00	401.79
619.00	412.71
620.00	433.00
621.00	447.04
622.00	426.76
623.00	424.42
624.00	419.74
625.00	424.42
626.00	407.25
627.00	414.27
628.00	418.96
629.00	433.78
630.00	422.08
631.00	413.49
632.00	393.21
633.00	411.15
634.00	422.86
635.00	434.56
636.00	433.00
637.00	425.98
638.00	433.78
639.00	448.60
640.00	460.31
641.00	460.31
642.00	445.48
643.00	425.20
644.00	425.20
645.00	407.25
646.00	431.44
647.00	408.03
648.00	401.01
649.00	383.07
650.00	425.98
651.00	447.82
652.00	429.10
653.00	404.13
654.00	436.90
655.00	442.36
656.00	447.82
657.00	405.69
658.00	412.71
659.00	416.62
660.00	404.91
661.00	418.18
662.00	436.90
663.00	450.94
664.00	440.02
665.00	413.49
666.00	413.49
667.00	401.79
668.00	378.39
669.00	386.97
670.00	392.43
671.00	390.09
672.00	385.41
673.00	402.57
674.00	423.64
675.00	404.91
676.00	374.49
677.00	399.45
678.00	404.91
679.00	434.56
680.00	415.84
681.00	418.18
682.00	392.43
683.00	406.47
684.00	412.71
685.00	425.98
686.00	416.62
687.00	432.22
688.00	446.26
689.00	454.06
690.00	461.87
691.00	479.81
692.00	461.09
693.00	461.09
694.00	454.84
695.00	463.43
696.00	444.70
697.00	434.56
698.00	429.88
699.00	418.96
700.00	405.69
701.00	395.55
702.00	391.65
703.00	404.91
704.00	437.68
705.00	465.77
706.00	457.96
707.00	441.58
708.00	447.82
709.00	453.28
710.00	441.58
711.00	417.40
712.00	429.10
713.00	439.24
714.00	431.44
715.00	428.32
716.00	429.10
717.00	440.80
718.00	451.72
719.00	449.38
720.00	425.98
721.00	384.63
722.00	402.57
723.00	445.48
724.00	472.79
725.00	474.35
726.00	448.60
727.00	454.06
728.00	419.74
729.00	439.24
730.00	399.45
731.00	401.01
732.00	395.55
733.00	419.74
734.00	452.50
735.00	487.61
736.00	529.74
737.00	550.03
738.00	551.59
739.00	530.52
740.00	507.12
741.00	456.40
742.00	460.31
743.00	458.74
744.00	467.33
745.00	422.86
746.00	410.37
747.00	417.40
748.00	440.02
749.00	419.74
750.00	425.20
751.00	418.96
752.00	434.56
753.00	404.91
754.00	436.12
755.00	455.62
756.00	455.62
757.00	441.58
758.00	442.36
759.00	454.06
760.00	476.69
761.00	472.01
762.00	474.35
763.00	454.84
764.00	460.31
765.00	458.75
766.00	448.60
767.00	433.00
768.00	440.80
769.00	418.18
770.00	402.57
771.00	420.52
772.00	443.14
773.00	470.45
774.00	440.80
775.00	460.31
776.00	470.45
777.00	486.83
778.00	475.91
779.00	471.23
780.00	512.58
781.00	534.42
782.00	552.37
783.00	614.78
784.00	585.13
785.00	541.44
786.00	447.04
787.00	453.28
788.00	459.53
789.00	447.82
790.00	450.16
791.00	456.40
792.00	452.50
793.00	440.80
794.00	449.38
795.00	458.75
796.00	458.74
797.00	439.24
798.00	462.65
799.00	468.11
800.00	507.90
801.00	479.81
802.00	500.87
803.00	474.35
804.00	481.37
805.00	455.62
806.00	457.18
807.00	426.76
808.00	441.58
809.00	431.44
810.00	445.48
811.00	440.80
812.00	437.68
813.00	433.78
814.00	428.32
815.00	430.66
816.00	443.92
817.00	404.91
818.00	399.45
819.00	390.87
820.00	436.12
821.00	470.45
822.00	487.61
823.00	494.63
824.00	482.93
825.00	502.43
826.00	515.70
827.00	481.37
828.00	463.43
829.00	446.26
830.00	505.56
831.00	468.11
832.00	463.43
833.00	428.32
834.00	461.87
835.00	443.92
836.00	447.04
837.00	459.53
838.00	463.43
839.00	449.38
840.00	411.15
841.00	424.42
842.00	450.16
843.00	485.27
844.00	512.58
845.00	522.72
846.00	489.95
847.00	460.31
848.00	443.14
849.00	452.50
850.00	450.94
851.00	442.36
852.00	414.27
853.00	429.10
854.00	415.84
855.00	416.62
856.00	364.34
857.00	383.07
858.00	418.18
859.00	438.46
860.00	443.92
861.00	431.44
862.00	422.08
863.00	404.91
864.00	423.64
865.00	430.66
866.00	428.32
867.00	384.63
868.00	408.03
869.00	410.37
870.00	418.18
871.00	402.57
872.00	380.73
873.00	422.86
874.00	452.50
875.00	468.11
876.00	443.14
877.00	414.27
878.00	432.22
879.00	429.88
880.00	437.68
881.00	451.72
882.00	475.91
883.00	487.61
884.00	451.72
885.00	447.82
886.00	439.24
887.00	471.23
888.00	478.25
889.00	498.53
890.00	492.29
891.00	474.35
892.00	465.77
893.00	457.96
894.00	481.37
895.00	468.89
896.00	483.71
897.00	476.69
898.00	482.15
899.00	474.35
900.00	487.61
901.00	514.92
902.00	528.18
903.00	564.85
904.00	629.60
905.00	774.72
906.00	856.64
907.00	851.17
908.00	767.70
909.00	1021.25
910.00	1056.36
911.00	1114.88
912.00	869.90
913.00	871.46
914.00	826.99
915.00	734.15
916.00	631.16
917.00	554.71
918.00	492.29
919.00	466.55
920.00	457.96
921.00	467.33
922.00	473.57
923.00	461.87
924.00	462.65
925.00	486.05
926.00	504.78
927.00	486.05
928.00	469.67
929.00	461.09
930.00	488.39
931.00	472.79
932.00	469.67
933.00	471.23
934.00	472.79
935.00	464.21
936.00	440.80
937.00	448.60
938.00	458.75
939.00	465.77
940.00	454.06
941.00	450.16
942.00	464.21
943.00	608.54
944.00	1025.93
945.00	1875.55
946.00	2908.51
947.00	3697.27
948.00	3777.62
949.00	3246.32
950.00	2430.26
951.00	1678.16
952.00	1091.47
953.00	748.97
954.00	565.63
955.00	518.82
956.00	447.82
957.00	446.26
958.00	436.90
959.00	468.11
960.00	433.78
961.00	433.00
962.00	423.64
963.00	467.33
964.00	461.09
965.00	465.77
966.00	449.38
967.00	454.06
968.00	457.96
969.00	460.31
970.00	462.65
971.00	468.89
972.00	464.99
973.00	482.93
974.00	477.47
975.00	485.27
976.00	461.87
977.00	464.99
978.00	444.70
979.00	450.94
980.00	422.86
981.00	460.31
982.00	454.06
983.00	475.91
984.00	443.14
985.00	436.12
986.00	416.62
987.00	418.96
988.00	400.23
989.00	389.31
990.00	385.41
991.00	419.74
992.00	438.46
993.00	443.92
994.00	439.24
995.00	411.93
996.00	410.37
997.00	391.65
998.00	422.86
999.00	440.02
1000.00	476.69
1001.00	489.95
1002.00	478.25
1003.00	479.03
1004.00	485.27
1005.00	508.68
1006.00	513.36
1007.00	489.95
1008.00	460.31
1009.00	444.70
1010.00	469.67
1011.00	489.95
1012.00	495.41
1013.00	454.84
1014.00	440.02
1015.00	433.00
1016.00	445.48
1017.00	437.68
1018.00	415.84
1019.00	426.76
1020.00	440.02
1021.00	468.89
1022.00	475.13
1023.00	470.45
1024.00	450.16
1025.00	436.12
1026.00	449.38
1027.00	441.58
1028.00	442.36
1029.00	415.84
1030.00	450.16
1031.00	464.21
1032.00	473.57
1033.00	448.60
1034.00	424.42
1035.00	417.40
1036.00	426.76
1037.00	454.84
1038.00	464.99
1039.00	466.55
1040.00	458.75
1041.00	488.39
1042.00	531.30
1043.00	558.61
1044.00	563.29
1045.00	555.49
1046.00	552.37
1047.00	515.70
1048.00	469.67
1049.00	437.68
1050.00	457.96
1051.00	457.96
1052.00	472.01
1053.00	468.11
1054.00	462.65
1055.00	440.80
1056.00	438.46
1057.00	442.36
1058.00	470.45
1059.00	450.94
1060.00	451.72
1061.00	433.00
1062.00	441.58
1063.00	455.62
1064.00	443.92
1065.00	435.34
1066.00	422.08
1067.00	442.36
1068.00	441.58
1069.00	444.70
1070.00	435.34
1071.00	439.24
1072.00	432.22
1073.00	440.02
1074.00	447.04
1075.00	452.50
1076.00	446.26
1077.00	446.26
1078.00	458.74
1079.00	499.31
1080.00	501.65
1081.00	507.12
1082.00	462.65
1083.00	457.96
1084.00	437.68
1085.00	443.92
1086.00	463.43
1087.00	466.55
1088.00	475.13
1089.00	474.35
1090.00	493.07
1091.00	462.65
1092.00	472.79
1093.00	460.31
1094.00	472.79
1095.00	488.39
1096.00	505.56
1097.00	525.06
1098.00	510.24
1099.00	508.68
1100.00	553.15
1101.00	563.29
1102.00	575.77
1103.00	554.71
1104.00	564.07
1105.00	556.27
1106.00	528.18
1107.00	501.65
1108.00	468.11
1109.00	468.11
1110.00	446.26
1111.00	461.09
1112.00	454.84
1113.00	465.77
1114.00	464.99
1115.00	474.35
1116.00	450.94
1117.00	457.18
1118.00	461.09
1119.00	489.17
1120.00	489.95
1121.00	496.97
1122.00	532.86
1123.00	563.29
1124.00	524.28
1125.00	475.13
1126.00	427.54
1127.00	440.02
1128.00	444.70
1129.00	464.21
1130.00	468.89
1131.00	453.28
1132.00	455.62
1133.00	447.82
1134.00	445.48
1135.00	433.78
1136.00	461.09
1137.00	533.64
1138.00	556.27
1139.00	565.63
1140.00	525.06
1141.00	539.88
1142.00	518.82
1143.00	490.73
1144.00	478.25
1145.00	495.41
1146.00	528.18
1147.00	511.02
1148.00	481.37
1149.00	467.33
1150.00	481.37
1151.00	511.02
1152.00	506.34
1153.00	515.70
1154.00	517.26
1155.00	586.69
1156.00	642.09
1157.00	707.62
1158.00	731.03
1159.00	719.32
1160.00	692.02
1161.00	648.33
1162.00	602.30
1163.00	603.08
1164.00	748.19
1165.00	1045.44
1166.00	1419.92
1167.00	1668.80
1168.00	1743.70
1169.00	1550.21
1170.00	1283.39
1171.00	1012.67
1172.00	837.91
1173.00	711.52
1174.00	619.46
1175.00	586.69
1176.00	560.95
1177.00	550.81
1178.00	562.51
1179.00	576.55
1180.00	600.74
1181.00	606.98
1182.00	621.02
1183.00	632.72
1184.00	642.87
1185.00	635.07
1186.00	642.87
1187.00	649.11
1188.00	664.71
1189.00	690.46
1190.00	740.39
1191.00	823.87
1192.00	865.22
1193.00	880.04
1194.00	857.42
1195.00	845.71
1196.00	844.15
1197.00	832.45
1198.00	897.99
1199.00	1016.57
1200.00	1215.52
1201.00	1376.24
1202.00	1451.13
1203.00	1430.85
1204.00	1341.91
1205.00	1264.67
1206.00	1204.60
1207.00	1127.36
1208.00	1102.39
1209.00	1100.05
1210.00	1193.67
1211.00	1261.55
1212.00	1357.51
1213.00	1494.82
1214.00	1698.45
1215.00	2003.50
1216.00	2539.48
1217.00	5781.90
1218.00	21392.50
1219.00	42131.98
1220.00	60083.89
1221.00	65535.00
1222.00	65535.00
1223.00	65535.00
1224.00	65535.00
1225.00	65340.74
1226.00	56214.99
1227.00	40594.25
1228.00	21963.59
1229.00	10783.63
1230.00	5496.36
1231.00	3161.28
1232.00	2211.81
1233.00	1844.34
1234.00	1709.37
1235.00	1699.23
1236.00	2122.09
1237.00	3814.29
1238.00	7118.35
1239.00	11623.88
1240.00	15251.71
1241.00	16263.60
1242.00	14513.66
1243.00	11171.38
1244.00	7698.80
1245.00	4799.66
1246.00	2808.64
1247.00	1742.14
1248.00	1190.55
1249.00	940.12
1250.00	881.60
1251.00	950.26
1252.00	1097.71
1253.00	1223.32
1254.00	1281.83
1255.00	1244.38
1256.00	1192.89
1257.00	1094.59
1258.00	1029.06
1259.00	968.98
1260.00	934.65
1261.00	896.43
1262.00	893.30
1263.00	892.52
1264.00	875.36
1265.00	812.17
1266.00	741.17
1267.00	723.23
1268.00	730.25
1269.00	766.92
1270.00	777.06
1271.00	772.38
1272.00	776.28
1273.00	797.34
1274.00	852.74
1275.00	1227.22
1276.00	2975.60
1277.00	7203.39
1278.00	14671.26
1279.00	22880.30
1280.00	28552.20
1281.00	28706.67
1282.00	24601.37
1283.00	18069.72
1284.00	11797.08
1285.00	6735.28
1286.00	3637.19
1287.00	2084.64
1288.00	1324.74
1289.00	1019.69
1290.00	879.26
1291.00	839.47
1292.00	863.66
1293.00	861.32
1294.00	922.95
1295.00	1116.44
1296.00	1802.99
1297.00	3031.77
1298.00	4753.63
1299.00	6172.77
1300.00	6800.82
1301.00	6338.17
1302.00	5131.23
1303.00	3661.38
1304.00	2378.76
1305.00	1551.00
1306.00	1145.30
1307.00	951.82
1308.00	870.68
1309.00	816.85
1310.00	795.00
1311.00	740.39
1312.00	673.29
1313.00	624.92
1314.00	592.16
1315.00	584.35
1316.00	571.87
1317.00	578.89
1318.00	597.62
1319.00	603.08
1320.00	597.62
1321.00	591.38
1322.00	583.57
1323.00	576.55
1324.00	542.22
1325.00	543.00
1326.00	552.37
1327.00	567.97
1328.00	578.89
1329.00	631.16
1330.00	985.37
1331.00	1884.91
1332.00	3464.77
1333.00	5411.32
1334.00	7032.53
1335.00	7447.58
1336.00	6686.91
1337.00	5208.47
1338.00	3681.66
1339.00	2439.62
1340.00	1533.83
1341.00	1086.79
1342.00	826.99
1343.00	702.16
1344.00	650.67
1345.00	637.41
1346.00	630.38
1347.00	639.75
1348.00	635.85
1349.00	634.29
1350.00	609.32
1351.00	638.19
1352.00	671.73
1353.00	695.14
1354.00	692.02
1355.00	724.79
1356.00	780.18
