SpectraSuite Data File
++++++++++++++++++++++++++++++++++++
Date: Thu Nov 16 13:55:13 EST 2017
User: cheriyan
Dark Spectrum Present: No
Reference Spectrum Present: No
Number of Sampled Component Spectra: 1
Spectrometers: USB2+H05261
Integration Time (usec): 100000 (USB2+H05261)
Spectra Averaged: 1 (USB2+H05261)
Boxcar Smoothing: 1 (USB2+H05261)
Correct for Electrical Dark: No (USB2+H05261)
Strobe/Lamp Enabled: No (USB2+H05261)
Correct for Detector Non-linearity: No (USB2+H05261)
Correct for Stray Light: No (USB2+H05261)
Number of Pixels in Processed Spectrum: 2048
>>>>>Begin Processed Spectral Data<<<<<
0.00	346.40
1.00	346.40
2.00	344.06
3.00	312.07
4.00	272.28
5.00	205.97
6.00	199.73
7.00	215.33
8.00	250.44
9.00	267.60
10.00	265.26
11.00	280.08
12.00	254.34
13.00	244.20
14.00	230.15
15.00	225.47
16.00	225.47
17.00	228.59
18.00	250.44
19.00	274.62
20.00	283.20
21.00	286.33
22.00	271.50
23.00	300.37
24.00	322.21
25.00	339.38
26.00	340.94
27.00	376.83
28.00	366.68
29.00	367.46
30.00	317.53
31.00	358.10
32.00	376.83
33.00	411.15
34.00	403.35
35.00	365.90
36.00	353.42
37.00	351.08
38.00	369.80
39.00	390.87
40.00	404.91
41.00	434.56
42.00	445.48
43.00	457.96
44.00	454.84
45.00	433.00
46.00	412.71
47.00	453.28
48.00	463.43
49.00	473.57
50.00	432.22
51.00	415.06
52.00	406.47
53.00	401.79
54.00	405.69
55.00	422.08
56.00	415.06
57.00	436.90
58.00	440.02
59.00	439.24
60.00	429.88
61.00	425.20
62.00	425.20
63.00	386.19
64.00	376.05
65.00	379.95
66.00	397.11
67.00	400.23
68.00	379.17
69.00	396.33
70.00	406.47
71.00	406.47
72.00	424.42
73.00	396.33
74.00	419.74
75.00	393.99
76.00	392.43
77.00	392.43
78.00	401.01
79.00	436.90
80.00	403.35
81.00	388.53
82.00	374.49
83.00	396.33
84.00	406.47
85.00	369.80
86.00	371.36
87.00	372.15
88.00	386.97
89.00	364.34
90.00	376.05
91.00	378.39
92.00	408.81
93.00	418.18
94.00	440.02
95.00	419.74
96.00	401.79
97.00	385.41
98.00	403.35
99.00	401.79
100.00	405.69
101.00	394.77
102.00	390.87
103.00	403.35
104.00	393.99
105.00	384.63
106.00	362.78
107.00	371.36
108.00	383.85
109.00	394.77
110.00	399.45
111.00	402.57
112.00	410.37
113.00	400.23
114.00	404.13
115.00	392.43
116.00	413.49
117.00	410.37
118.00	411.15
119.00	379.17
120.00	370.58
121.00	379.95
122.00	419.74
123.00	432.22
124.00	425.98
125.00	418.96
126.00	415.84
127.00	434.56
128.00	436.90
129.00	447.04
130.00	431.44
131.00	391.65
132.00	382.29
133.00	393.99
134.00	421.30
135.00	439.24
136.00	440.80
137.00	450.16
138.00	430.66
139.00	423.64
140.00	436.90
141.00	448.60
142.00	450.16
143.00	441.58
144.00	440.02
145.00	452.50
146.00	450.16
147.00	465.77
148.00	450.94
149.00	426.76
150.00	395.55
151.00	386.97
152.00	407.25
153.00	418.18
154.00	415.06
155.00	393.99
156.00	379.95
157.00	391.65
158.00	416.62
159.00	431.44
160.00	435.34
161.00	408.03
162.00	404.91
163.00	393.99
164.00	401.01
165.00	416.62
166.00	428.32
167.00	450.16
168.00	457.18
169.00	456.40
170.00	450.94
171.00	430.66
172.00	404.13
173.00	406.47
174.00	409.59
175.00	418.96
176.00	415.06
177.00	433.00
178.00	447.04
179.00	456.40
180.00	437.68
181.00	409.59
182.00	386.97
183.00	378.39
184.00	397.11
185.00	397.89
186.00	395.55
187.00	423.64
188.00	418.96
189.00	453.28
190.00	433.78
191.00	439.24
192.00	423.64
193.00	433.00
194.00	461.87
195.00	486.83
196.00	525.84
197.00	537.54
198.00	517.26
199.00	496.19
200.00	481.37
201.00	489.95
202.00	448.60
203.00	422.86
204.00	402.57
205.00	414.27
206.00	439.24
207.00	423.64
208.00	419.74
209.00	395.55
210.00	411.93
211.00	417.40
212.00	416.62
213.00	415.06
214.00	423.64
215.00	434.56
216.00	412.71
217.00	431.44
218.00	445.48
219.00	464.99
220.00	427.54
221.00	423.64
222.00	439.24
223.00	468.11
224.00	447.82
225.00	446.26
226.00	402.57
227.00	413.49
228.00	399.45
229.00	431.44
230.00	430.66
231.00	418.18
232.00	397.89
233.00	397.89
234.00	413.49
235.00	413.49
236.00	424.42
237.00	423.64
238.00	417.40
239.00	393.21
240.00	376.83
241.00	389.31
242.00	412.71
243.00	418.96
244.00	431.44
245.00	426.76
246.00	422.86
247.00	407.25
248.00	397.89
249.00	391.65
250.00	377.61
251.00	368.24
252.00	393.21
253.00	425.20
254.00	448.60
255.00	454.06
256.00	456.40
257.00	452.50
258.00	457.18
259.00	438.46
260.00	429.88
261.00	416.62
262.00	384.63
263.00	389.31
264.00	387.75
265.00	466.55
266.00	500.87
267.00	534.42
268.00	540.66
269.00	557.83
270.00	568.75
271.00	592.94
272.00	602.30
273.00	610.88
274.00	596.84
275.00	561.73
276.00	541.44
277.00	517.26
278.00	526.62
279.00	546.91
280.00	543.00
281.00	515.70
282.00	450.94
283.00	414.27
284.00	419.74
285.00	427.54
286.00	455.62
287.00	415.84
288.00	425.98
289.00	400.23
290.00	435.34
291.00	417.40
292.00	427.54
293.00	411.15
294.00	418.18
295.00	410.37
296.00	399.45
297.00	388.53
298.00	395.55
299.00	424.42
300.00	433.00
301.00	408.81
302.00	411.15
303.00	422.08
304.00	427.54
305.00	416.62
306.00	438.46
307.00	543.78
308.00	638.19
309.00	685.78
310.00	658.47
311.00	585.13
312.00	537.54
313.00	479.03
314.00	457.96
315.00	453.28
316.00	476.69
317.00	482.15
318.00	455.62
319.00	436.12
320.00	422.08
321.00	425.20
322.00	422.86
323.00	422.86
324.00	435.34
325.00	443.14
326.00	439.24
327.00	413.49
328.00	409.59
329.00	429.88
330.00	426.76
331.00	432.22
332.00	431.44
333.00	454.06
334.00	441.58
335.00	433.00
336.00	409.59
337.00	409.59
338.00	412.71
339.00	430.66
340.00	422.86
341.00	413.49
342.00	421.30
343.00	454.84
344.00	486.05
345.00	497.75
346.00	528.96
347.00	591.38
348.00	662.37
349.00	702.16
350.00	703.72
351.00	655.35
352.00	607.76
353.00	564.07
354.00	573.43
355.00	550.81
356.00	511.80
357.00	463.43
358.00	445.48
359.00	462.65
360.00	469.67
361.00	472.01
362.00	451.72
363.00	438.46
364.00	401.79
365.00	402.57
366.00	391.65
367.00	411.15
368.00	410.37
369.00	406.47
370.00	391.65
371.00	358.88
372.00	392.43
373.00	419.74
374.00	450.16
375.00	411.93
376.00	409.59
377.00	395.55
378.00	404.13
379.00	404.91
380.00	429.10
381.00	445.48
382.00	429.88
383.00	412.71
384.00	403.35
385.00	417.40
386.00	406.47
387.00	425.20
388.00	414.27
389.00	435.34
390.00	439.24
391.00	436.12
392.00	440.02
393.00	425.20
394.00	434.56
395.00	433.00
396.00	430.66
397.00	462.65
398.00	445.48
399.00	428.32
400.00	447.04
401.00	458.74
402.00	475.13
403.00	421.30
404.00	401.01
405.00	401.01
406.00	391.65
407.00	404.91
408.00	408.03
409.00	415.84
410.00	449.38
411.00	461.87
412.00	475.91
413.00	441.58
414.00	436.12
415.00	425.20
416.00	419.74
417.00	406.47
418.00	408.03
419.00	393.99
420.00	381.51
421.00	387.75
422.00	393.99
423.00	429.10
424.00	431.44
425.00	459.53
426.00	436.90
427.00	422.86
428.00	401.01
429.00	406.47
430.00	415.84
431.00	421.30
432.00	420.52
433.00	424.42
434.00	431.44
435.00	416.62
436.00	409.59
437.00	408.03
438.00	411.15
439.00	391.65
440.00	366.68
441.00	425.98
442.00	463.43
443.00	496.19
444.00	464.21
445.00	462.65
446.00	461.09
447.00	421.30
448.00	397.11
449.00	399.45
450.00	400.23
451.00	418.96
452.00	415.84
453.00	447.04
454.00	447.04
455.00	437.68
456.00	425.98
457.00	404.91
458.00	406.47
459.00	428.32
460.00	416.62
461.00	412.71
462.00	379.17
463.00	390.09
464.00	405.69
465.00	434.56
466.00	447.82
467.00	414.27
468.00	422.08
469.00	392.43
470.00	404.91
471.00	373.71
472.00	401.01
473.00	407.25
474.00	423.64
475.00	432.22
476.00	436.90
477.00	430.66
478.00	423.64
479.00	422.86
480.00	435.34
481.00	423.64
482.00	411.93
483.00	399.45
484.00	406.47
485.00	407.25
486.00	404.13
487.00	402.57
488.00	403.35
489.00	416.62
490.00	428.32
491.00	456.40
492.00	476.69
493.00	497.75
494.00	517.26
495.00	495.41
496.00	469.67
497.00	413.49
498.00	390.09
499.00	379.17
500.00	426.76
501.00	461.87
502.00	479.03
503.00	450.16
504.00	438.46
505.00	450.94
506.00	478.25
507.00	461.09
508.00	445.48
509.00	426.76
510.00	417.40
511.00	408.03
512.00	415.06
513.00	437.68
514.00	456.40
515.00	439.24
516.00	434.56
517.00	425.20
518.00	424.42
519.00	425.98
520.00	410.37
521.00	401.01
522.00	398.67
523.00	398.67
524.00	413.49
525.00	431.44
526.00	453.28
527.00	438.46
528.00	421.30
529.00	376.83
530.00	379.95
531.00	386.19
532.00	442.36
533.00	468.89
534.00	482.15
535.00	460.31
536.00	441.58
537.00	431.44
538.00	434.56
539.00	436.90
540.00	411.15
541.00	397.11
542.00	392.43
543.00	408.03
544.00	421.30
545.00	434.56
546.00	457.96
547.00	461.09
548.00	478.25
549.00	462.65
550.00	450.94
551.00	440.02
552.00	425.98
553.00	443.92
554.00	427.54
555.00	455.62
556.00	455.62
557.00	470.45
558.00	459.53
559.00	433.78
560.00	411.15
561.00	390.09
562.00	391.65
563.00	387.75
564.00	417.40
565.00	432.22
566.00	440.80
567.00	417.40
568.00	403.35
569.00	404.91
570.00	444.70
571.00	462.65
572.00	461.87
573.00	405.69
574.00	381.51
575.00	367.46
576.00	369.80
577.00	363.56
578.00	372.15
579.00	411.93
580.00	439.24
581.00	424.42
582.00	406.47
583.00	397.89
584.00	418.96
585.00	434.56
586.00	425.20
587.00	425.98
588.00	412.71
589.00	422.86
590.00	438.46
591.00	433.78
592.00	451.72
593.00	444.70
594.00	448.60
595.00	461.09
596.00	469.67
597.00	461.09
598.00	425.20
599.00	404.13
600.00	422.08
601.00	424.42
602.00	429.88
603.00	420.52
604.00	425.98
605.00	430.66
606.00	425.98
607.00	440.80
608.00	443.92
609.00	468.89
610.00	456.40
611.00	450.16
612.00	397.89
613.00	393.99
614.00	415.84
615.00	443.14
616.00	453.28
617.00	432.22
618.00	425.98
619.00	417.40
620.00	425.20
621.00	433.78
622.00	454.06
623.00	468.89
624.00	485.27
625.00	466.55
626.00	443.14
627.00	421.30
628.00	425.98
629.00	431.44
630.00	452.50
631.00	452.50
632.00	429.10
633.00	392.43
634.00	374.49
635.00	384.63
636.00	425.98
637.00	425.98
638.00	433.00
639.00	427.54
640.00	440.02
641.00	447.04
642.00	443.14
643.00	428.32
644.00	413.49
645.00	401.01
646.00	400.23
647.00	405.69
648.00	393.21
649.00	408.81
650.00	426.76
651.00	464.21
652.00	462.65
653.00	443.14
654.00	456.40
655.00	464.99
656.00	482.15
657.00	458.74
658.00	467.33
659.00	458.75
660.00	418.18
661.00	405.69
662.00	428.32
663.00	446.26
664.00	442.36
665.00	424.42
666.00	461.87
667.00	463.43
668.00	468.89
669.00	429.10
670.00	430.66
671.00	427.54
672.00	422.08
673.00	433.00
674.00	411.15
675.00	432.22
676.00	416.62
677.00	435.34
678.00	425.98
679.00	425.20
680.00	418.96
681.00	417.40
682.00	399.45
683.00	405.69
684.00	427.54
685.00	459.53
686.00	454.84
687.00	448.60
688.00	424.42
689.00	436.90
690.00	450.16
691.00	469.67
692.00	441.58
693.00	418.18
694.00	393.99
695.00	417.40
696.00	401.79
697.00	417.40
698.00	401.01
699.00	410.37
700.00	428.32
701.00	429.88
702.00	454.06
703.00	431.44
704.00	437.68
705.00	415.06
706.00	423.64
707.00	401.01
708.00	406.47
709.00	397.89
710.00	417.40
711.00	403.35
712.00	392.43
713.00	376.83
714.00	384.63
715.00	429.10
716.00	454.06
717.00	471.23
718.00	507.12
719.00	507.90
720.00	497.75
721.00	433.78
722.00	408.81
723.00	411.15
724.00	401.79
725.00	423.64
726.00	408.03
727.00	425.20
728.00	440.80
729.00	457.18
730.00	467.33
731.00	461.09
732.00	457.18
733.00	455.62
734.00	483.71
735.00	517.26
736.00	546.12
737.00	517.26
738.00	504.78
739.00	464.21
740.00	454.06
741.00	435.34
742.00	429.88
743.00	456.40
744.00	473.57
745.00	489.95
746.00	461.09
747.00	418.18
748.00	399.45
749.00	402.57
750.00	416.62
751.00	435.34
752.00	451.72
753.00	464.21
754.00	415.06
755.00	406.47
756.00	397.89
757.00	449.38
758.00	442.36
759.00	474.35
760.00	504.78
761.00	496.97
762.00	494.63
763.00	457.96
764.00	479.81
765.00	447.82
766.00	420.52
767.00	400.23
768.00	405.69
769.00	431.44
770.00	470.45
771.00	475.91
772.00	475.13
773.00	453.28
774.00	456.40
775.00	456.40
776.00	436.12
777.00	428.32
778.00	425.20
779.00	471.23
780.00	518.04
781.00	570.31
782.00	571.09
783.00	610.10
784.00	582.79
785.00	571.09
786.00	475.91
787.00	457.96
788.00	435.34
789.00	434.56
790.00	418.96
791.00	399.45
792.00	398.67
793.00	418.96
794.00	428.32
795.00	443.92
796.00	422.08
797.00	443.14
798.00	472.79
799.00	475.13
800.00	477.47
801.00	489.17
802.00	490.73
803.00	502.43
804.00	483.71
805.00	488.39
806.00	438.46
807.00	407.25
808.00	421.30
809.00	450.94
810.00	472.01
811.00	458.75
812.00	465.77
813.00	461.87
814.00	461.09
815.00	455.62
816.00	443.92
817.00	465.77
818.00	447.04
819.00	450.16
820.00	449.38
821.00	490.73
822.00	534.42
823.00	536.76
824.00	523.50
825.00	486.05
826.00	478.25
827.00	468.11
828.00	460.31
829.00	457.96
830.00	473.57
831.00	457.96
832.00	444.70
833.00	443.14
834.00	489.17
835.00	498.53
836.00	493.07
837.00	472.01
838.00	475.13
839.00	461.09
840.00	475.13
841.00	471.23
842.00	487.61
843.00	468.11
844.00	496.19
845.00	454.06
846.00	445.48
847.00	384.63
848.00	411.15
849.00	418.18
850.00	451.72
851.00	437.68
852.00	437.68
853.00	397.89
854.00	385.41
855.00	378.39
856.00	401.01
857.00	422.08
858.00	422.08
859.00	423.64
860.00	417.40
861.00	441.58
862.00	461.09
863.00	492.29
864.00	471.23
865.00	443.92
866.00	418.96
867.00	411.15
868.00	418.18
869.00	411.93
870.00	426.76
871.00	417.40
872.00	413.49
873.00	408.03
874.00	441.58
875.00	433.78
876.00	459.53
877.00	445.48
878.00	479.81
879.00	449.38
880.00	448.60
881.00	445.48
882.00	470.45
883.00	479.81
884.00	476.69
885.00	456.40
886.00	457.18
887.00	461.87
888.00	473.57
889.00	489.17
890.00	453.28
891.00	446.26
892.00	434.56
893.00	465.77
894.00	458.75
895.00	429.10
896.00	423.64
897.00	435.34
898.00	442.36
899.00	454.06
900.00	440.02
901.00	489.17
902.00	508.68
903.00	589.03
904.00	667.05
905.00	763.79
906.00	822.31
907.00	805.14
908.00	770.04
909.00	986.93
910.00	1006.43
911.00	1074.31
912.00	893.30
913.00	909.69
914.00	869.90
915.00	772.38
916.00	665.49
917.00	552.37
918.00	492.29
919.00	468.89
920.00	474.35
921.00	484.49
922.00	470.45
923.00	464.21
924.00	449.38
925.00	447.04
926.00	440.80
927.00	434.56
928.00	461.87
929.00	456.40
930.00	447.82
931.00	431.44
932.00	423.64
933.00	422.86
934.00	411.15
935.00	422.86
936.00	431.44
937.00	454.84
938.00	487.61
939.00	486.05
940.00	482.15
941.00	439.24
942.00	466.55
943.00	599.96
944.00	1040.76
945.00	1877.11
946.00	2898.36
947.00	3598.18
948.00	3640.31
949.00	3142.56
950.00	2372.52
951.00	1635.25
952.00	1043.10
953.00	718.54
954.00	574.99
955.00	521.94
956.00	500.87
957.00	475.91
958.00	463.43
959.00	460.31
960.00	451.72
961.00	439.24
962.00	429.88
963.00	435.34
964.00	447.04
965.00	451.72
966.00	479.03
967.00	479.03
968.00	486.05
969.00	442.36
970.00	438.46
971.00	418.18
972.00	447.04
973.00	434.56
974.00	447.04
975.00	448.60
976.00	454.84
977.00	434.56
978.00	440.02
979.00	474.35
980.00	501.65
981.00	490.73
982.00	457.18
983.00	440.02
984.00	432.22
985.00	462.65
986.00	447.04
987.00	442.36
988.00	403.35
989.00	424.42
990.00	415.06
991.00	426.76
992.00	418.18
993.00	437.68
994.00	419.74
995.00	433.78
996.00	447.82
997.00	472.79
998.00	450.16
999.00	445.48
1000.00	422.08
1001.00	447.04
1002.00	457.18
1003.00	506.34
1004.00	489.95
1005.00	473.57
1006.00	447.82
1007.00	468.89
1008.00	472.79
1009.00	469.67
1010.00	480.59
1011.00	482.15
1012.00	484.49
1013.00	461.87
1014.00	464.21
1015.00	475.91
1016.00	478.25
1017.00	489.95
1018.00	487.61
1019.00	474.35
1020.00	430.66
1021.00	402.57
1022.00	410.37
1023.00	421.30
1024.00	447.04
1025.00	429.88
1026.00	460.31
1027.00	468.89
1028.00	496.97
1029.00	475.13
1030.00	425.20
1031.00	422.08
1032.00	424.42
1033.00	432.22
1034.00	414.27
1035.00	405.69
1036.00	443.92
1037.00	452.50
1038.00	476.69
1039.00	451.72
1040.00	454.84
1041.00	468.89
1042.00	504.00
1043.00	517.26
1044.00	487.61
1045.00	503.22
1046.00	491.51
1047.00	506.34
1048.00	456.40
1049.00	455.62
1050.00	446.26
1051.00	464.21
1052.00	454.84
1053.00	457.18
1054.00	429.10
1055.00	439.24
1056.00	428.32
1057.00	423.64
1058.00	413.49
1059.00	411.15
1060.00	429.88
1061.00	431.44
1062.00	421.30
1063.00	429.88
1064.00	440.80
1065.00	469.67
1066.00	461.87
1067.00	449.38
1068.00	442.36
1069.00	435.34
1070.00	457.18
1071.00	455.62
1072.00	446.26
1073.00	422.08
1074.00	406.47
1075.00	403.35
1076.00	390.87
1077.00	404.91
1078.00	437.68
1079.00	477.47
1080.00	453.28
1081.00	443.14
1082.00	404.91
1083.00	428.32
1084.00	448.60
1085.00	491.51
1086.00	514.14
1087.00	496.19
1088.00	479.81
1089.00	446.26
1090.00	446.26
1091.00	443.14
1092.00	461.09
1093.00	426.76
1094.00	409.59
1095.00	430.66
1096.00	456.40
1097.00	500.87
1098.00	488.39
1099.00	546.12
1100.00	566.41
1101.00	564.07
1102.00	558.61
1103.00	546.91
1104.00	539.88
1105.00	507.90
1106.00	507.90
1107.00	534.42
1108.00	537.54
1109.00	503.22
1110.00	473.57
1111.00	436.12
1112.00	450.94
1113.00	443.92
1114.00	475.91
1115.00	464.21
1116.00	496.97
1117.00	482.93
1118.00	496.19
1119.00	495.41
1120.00	532.08
1121.00	544.56
1122.00	564.07
1123.00	557.83
1124.00	532.86
1125.00	499.31
1126.00	479.03
1127.00	461.87
1128.00	440.02
1129.00	431.44
1130.00	455.62
1131.00	476.69
1132.00	464.99
1133.00	459.53
1134.00	459.53
1135.00	480.59
1136.00	475.91
1137.00	479.03
1138.00	489.95
1139.00	513.36
1140.00	479.03
1141.00	449.38
1142.00	407.25
1143.00	429.10
1144.00	446.26
1145.00	466.55
1146.00	479.03
1147.00	473.57
1148.00	495.41
1149.00	506.34
1150.00	514.14
1151.00	488.39
1152.00	485.27
1153.00	508.68
1154.00	562.51
1155.00	624.14
1156.00	711.52
1157.00	759.89
1158.00	759.11
1159.00	696.70
1160.00	642.87
1161.00	591.38
1162.00	574.99
1163.00	613.22
1164.00	768.48
1165.00	1082.89
1166.00	1419.14
1167.00	1688.31
1168.00	1708.59
1169.00	1564.26
1170.00	1324.74
1171.00	1050.90
1172.00	862.88
1173.00	710.74
1174.00	645.99
1175.00	580.45
1176.00	567.19
1177.00	553.93
1178.00	572.65
1179.00	578.89
1180.00	604.64
1181.00	609.32
1182.00	621.80
1183.00	640.53
1184.00	652.23
1185.00	642.87
1186.00	647.55
1187.00	644.43
1188.00	681.88
1189.00	700.60
1190.00	762.23
1191.00	800.46
1192.00	851.17
1193.00	869.12
1194.00	856.64
1195.00	858.98
1196.00	832.45
1197.00	841.03
1198.00	881.60
1199.00	1004.87
1200.00	1203.04
1201.00	1379.36
1202.00	1507.30
1203.00	1480.00
1204.00	1384.04
1205.00	1267.79
1206.00	1206.94
1207.00	1142.96
1208.00	1139.84
1209.00	1113.31
1210.00	1160.91
1211.00	1212.40
1212.00	1329.42
1213.00	1483.12
1214.00	1671.92
1215.00	1974.63
1216.00	2466.92
1217.00	5738.99
1218.00	21205.25
1219.00	42003.25
1220.00	59942.68
1221.00	65535.00
1222.00	65535.00
1223.00	65535.00
1224.00	65535.00
1225.00	65332.15
1226.00	56168.18
1227.00	40513.11
1228.00	21923.02
1229.00	10739.94
1230.00	5436.28
1231.00	3094.19
1232.00	2161.09
1233.00	1830.30
1234.00	1633.69
1235.00	1635.25
1236.00	2069.81
1237.00	3794.01
1238.00	7046.57
1239.00	11563.03
1240.00	15133.90
1241.00	16294.03
1242.00	14544.09
1243.00	11290.74
1244.00	7688.66
1245.00	4798.10
1246.00	2771.19
1247.00	1749.16
1248.00	1205.38
1249.00	984.59
1250.00	927.63
1251.00	968.98
1252.00	1089.13
1253.00	1224.10
1254.00	1275.59
1255.00	1233.46
1256.00	1180.41
1257.00	1093.03
1258.00	1043.10
1259.00	958.06
1260.00	941.68
1261.00	871.46
1262.00	888.62
1263.00	826.21
1264.00	848.05
1265.00	813.73
1266.00	799.68
1267.00	758.33
1268.00	746.63
1269.00	773.94
1270.00	791.10
1271.00	798.90
1272.00	817.63
1273.00	820.75
1274.00	862.88
1275.00	1213.96
1276.00	2949.08
1277.00	7245.52
1278.00	14600.26
1279.00	22767.17
1280.00	28340.77
1281.00	28595.89
1282.00	24387.60
1283.00	17827.08
1284.00	11541.96
1285.00	6645.56
1286.00	3621.59
1287.00	2071.37
1288.00	1327.86
1289.00	1004.09
1290.00	869.90
1291.00	841.81
1292.00	869.12
1293.00	895.64
1294.00	887.84
1295.00	1057.14
1296.00	1668.02
1297.00	2960.78
1298.00	4691.99
1299.00	6198.52
1300.00	6761.03
1301.00	6274.98
1302.00	5092.23
1303.00	3674.64
1304.00	2469.27
1305.00	1606.39
1306.00	1192.11
1307.00	980.68
1308.00	896.43
1309.00	841.81
1310.00	778.62
1311.00	710.74
1312.00	660.81
1313.00	616.34
1314.00	617.90
1315.00	596.84
1316.00	613.22
1317.00	589.03
1318.00	585.91
1319.00	574.99
1320.00	544.56
1321.00	564.07
1322.00	557.05
1323.00	564.07
1324.00	567.97
1325.00	571.87
1326.00	582.01
1327.00	586.69
1328.00	595.28
1329.00	676.41
1330.00	1029.06
1331.00	1963.71
1332.00	3586.48
1333.00	5549.41
1334.00	7083.24
1335.00	7456.95
1336.00	6705.63
1337.00	5247.48
1338.00	3751.88
1339.00	2424.80
1340.00	1527.59
1341.00	1020.47
1342.00	798.90
1343.00	706.84
1344.00	660.81
1345.00	629.60
1346.00	610.88
1347.00	616.34
1348.00	629.60
1349.00	635.85
1350.00	638.97
1351.00	672.51
1352.00	685.00
1353.00	686.56
1354.00	695.92
1355.00	715.42
1356.00	765.36
