SpectraSuite Data File
++++++++++++++++++++++++++++++++++++
Date: Thu Nov 16 13:55:15 EST 2017
User: cheriyan
Dark Spectrum Present: No
Reference Spectrum Present: No
Number of Sampled Component Spectra: 1
Spectrometers: USB2+H05261
Integration Time (usec): 100000 (USB2+H05261)
Spectra Averaged: 1 (USB2+H05261)
Boxcar Smoothing: 1 (USB2+H05261)
Correct for Electrical Dark: No (USB2+H05261)
Strobe/Lamp Enabled: No (USB2+H05261)
Correct for Detector Non-linearity: No (USB2+H05261)
Correct for Stray Light: No (USB2+H05261)
Number of Pixels in Processed Spectrum: 2048
>>>>>Begin Processed Spectral Data<<<<<
0.00	339.38
1.00	339.38
2.00	310.51
3.00	295.69
4.00	249.66
5.00	226.25
6.00	224.69
7.00	226.25
8.00	252.78
9.00	228.59
10.00	236.39
11.00	246.54
12.00	273.06
13.00	270.72
14.00	283.98
15.00	275.40
16.00	295.69
17.00	294.91
18.00	285.55
19.00	283.98
20.00	274.62
21.00	315.19
22.00	335.48
23.00	330.02
24.00	320.65
25.00	335.48
26.00	373.71
27.00	396.33
28.00	358.10
29.00	335.48
30.00	332.36
31.00	363.56
32.00	393.21
33.00	391.65
34.00	393.99
35.00	383.07
36.00	377.61
37.00	396.33
38.00	393.21
39.00	429.10
40.00	425.98
41.00	433.00
42.00	404.13
43.00	401.79
44.00	410.37
45.00	419.74
46.00	412.71
47.00	433.00
48.00	422.08
49.00	417.40
50.00	404.13
51.00	420.52
52.00	457.18
53.00	450.16
54.00	443.14
55.00	419.74
56.00	416.62
57.00	429.88
58.00	425.98
59.00	411.93
60.00	370.58
61.00	394.77
62.00	413.49
63.00	459.53
64.00	404.13
65.00	397.89
66.00	388.53
67.00	407.25
68.00	404.13
69.00	385.41
70.00	419.74
71.00	421.30
72.00	432.22
73.00	419.74
74.00	398.67
75.00	383.07
76.00	388.53
77.00	417.40
78.00	455.62
79.00	433.78
80.00	429.88
81.00	413.49
82.00	417.40
83.00	419.74
84.00	401.79
85.00	403.35
86.00	391.65
87.00	393.99
88.00	414.27
89.00	390.87
90.00	420.52
91.00	390.87
92.00	425.98
93.00	421.30
94.00	433.00
95.00	436.12
96.00	426.76
97.00	433.78
98.00	401.01
99.00	397.11
100.00	385.41
101.00	381.51
102.00	352.64
103.00	376.05
104.00	401.01
105.00	432.22
106.00	403.35
107.00	413.49
108.00	393.21
109.00	408.03
110.00	402.57
111.00	390.87
112.00	385.41
113.00	372.93
114.00	418.96
115.00	447.82
116.00	468.89
117.00	439.24
118.00	421.30
119.00	390.09
120.00	397.89
121.00	383.85
122.00	391.65
123.00	411.15
124.00	420.52
125.00	435.34
126.00	387.75
127.00	365.12
128.00	377.61
129.00	396.33
130.00	401.79
131.00	365.12
132.00	366.68
133.00	379.17
134.00	415.06
135.00	433.00
136.00	435.34
137.00	429.10
138.00	428.32
139.00	446.26
140.00	427.54
141.00	429.10
142.00	428.32
143.00	457.18
144.00	453.28
145.00	472.79
146.00	489.95
147.00	516.48
148.00	491.51
149.00	485.27
150.00	436.90
151.00	430.66
152.00	392.43
153.00	421.30
154.00	418.96
155.00	437.68
156.00	427.54
157.00	420.52
158.00	423.64
159.00	418.18
160.00	420.52
161.00	392.43
162.00	401.01
163.00	365.90
164.00	392.43
165.00	376.05
166.00	432.22
167.00	417.40
168.00	435.34
169.00	433.78
170.00	450.94
171.00	455.62
172.00	442.36
173.00	440.80
174.00	436.12
175.00	438.46
176.00	419.74
177.00	411.15
178.00	401.79
179.00	415.84
180.00	417.40
181.00	429.88
182.00	421.30
183.00	414.27
184.00	410.37
185.00	410.37
186.00	410.37
187.00	401.79
188.00	402.57
189.00	417.40
190.00	410.37
191.00	407.25
192.00	391.65
193.00	431.44
194.00	469.67
195.00	521.94
196.00	550.03
197.00	552.37
198.00	509.46
199.00	471.23
200.00	426.76
201.00	411.93
202.00	401.01
203.00	395.55
204.00	418.18
205.00	416.62
206.00	410.37
207.00	401.01
208.00	401.79
209.00	429.88
210.00	430.66
211.00	423.64
212.00	440.02
213.00	422.86
214.00	405.69
215.00	372.93
216.00	397.89
217.00	433.78
218.00	426.76
219.00	410.37
220.00	406.47
221.00	418.18
222.00	403.35
223.00	398.67
224.00	389.31
225.00	386.97
226.00	377.61
227.00	366.68
228.00	392.43
229.00	372.15
230.00	404.91
231.00	375.27
232.00	395.55
233.00	409.59
234.00	449.38
235.00	447.82
236.00	410.37
237.00	366.68
238.00	353.42
239.00	368.24
240.00	386.97
241.00	405.69
242.00	418.18
243.00	444.70
244.00	453.28
245.00	423.64
246.00	410.37
247.00	411.15
248.00	433.00
249.00	432.22
250.00	410.37
251.00	386.97
252.00	374.49
253.00	389.31
254.00	417.40
255.00	477.47
256.00	479.03
257.00	490.73
258.00	488.39
259.00	490.73
260.00	472.01
261.00	429.10
262.00	441.58
263.00	443.14
264.00	434.56
265.00	408.03
266.00	431.44
267.00	493.85
268.00	551.59
269.00	583.57
270.00	571.09
271.00	567.97
272.00	599.96
273.00	621.80
274.00	631.94
275.00	592.16
276.00	560.95
277.00	549.25
278.00	541.44
279.00	559.39
280.00	537.54
281.00	500.09
282.00	467.33
283.00	450.94
284.00	426.76
285.00	413.49
286.00	400.23
287.00	407.25
288.00	415.06
289.00	428.32
290.00	422.08
291.00	411.93
292.00	385.41
293.00	409.59
294.00	396.33
295.00	407.25
296.00	386.19
297.00	398.67
298.00	401.79
299.00	421.30
300.00	401.79
301.00	407.25
302.00	403.35
303.00	456.40
304.00	462.65
305.00	444.70
306.00	461.09
307.00	514.92
308.00	642.87
309.00	649.89
310.00	635.85
311.00	555.49
312.00	526.62
313.00	485.27
314.00	458.75
315.00	430.66
316.00	436.90
317.00	425.20
318.00	431.44
319.00	422.08
320.00	445.48
321.00	438.46
322.00	461.09
323.00	439.24
324.00	436.90
325.00	416.62
326.00	429.10
327.00	445.48
328.00	429.10
329.00	436.12
330.00	425.98
331.00	450.16
332.00	435.34
333.00	443.14
334.00	436.90
335.00	447.04
336.00	450.16
337.00	447.82
338.00	449.38
339.00	447.82
340.00	448.60
341.00	449.38
342.00	455.62
343.00	450.94
344.00	481.37
345.00	504.78
346.00	563.29
347.00	613.22
348.00	697.48
349.00	725.57
350.00	720.88
351.00	639.75
352.00	589.82
353.00	554.71
354.00	550.81
355.00	539.10
356.00	491.51
357.00	458.75
358.00	450.16
359.00	454.06
360.00	463.43
361.00	425.98
362.00	440.80
363.00	430.66
364.00	416.62
365.00	383.85
366.00	360.44
367.00	394.77
368.00	439.24
369.00	465.77
370.00	463.43
371.00	449.38
372.00	431.44
373.00	443.14
374.00	453.28
375.00	463.43
376.00	462.65
377.00	429.10
378.00	431.44
379.00	413.49
380.00	423.64
381.00	401.01
382.00	421.30
383.00	408.81
384.00	431.44
385.00	425.98
386.00	445.48
387.00	449.38
388.00	434.56
389.00	428.32
390.00	393.99
391.00	387.75
392.00	375.27
393.00	390.09
394.00	399.45
395.00	411.15
396.00	432.22
397.00	433.78
398.00	440.80
399.00	440.02
400.00	433.00
401.00	421.30
402.00	403.35
403.00	413.49
404.00	424.42
405.00	440.80
406.00	424.42
407.00	404.91
408.00	392.43
409.00	419.74
410.00	436.12
411.00	443.92
412.00	438.46
413.00	426.76
414.00	436.12
415.00	422.08
416.00	416.62
417.00	400.23
418.00	405.69
419.00	430.66
420.00	443.14
421.00	456.40
422.00	451.72
423.00	460.31
424.00	449.38
425.00	425.20
426.00	429.10
427.00	422.08
428.00	464.21
429.00	445.48
430.00	457.18
431.00	400.23
432.00	383.07
433.00	374.49
434.00	411.15
435.00	419.74
436.00	418.18
437.00	423.64
438.00	435.34
439.00	449.38
440.00	450.94
441.00	476.69
442.00	475.91
443.00	484.49
444.00	466.55
445.00	463.43
446.00	469.67
447.00	457.18
448.00	450.16
449.00	426.76
450.00	438.46
451.00	450.94
452.00	447.82
453.00	446.26
454.00	422.08
455.00	417.40
456.00	404.13
457.00	401.01
458.00	392.43
459.00	391.65
460.00	405.69
461.00	408.81
462.00	393.21
463.00	391.65
464.00	400.23
465.00	399.45
466.00	407.25
467.00	412.71
468.00	402.57
469.00	409.59
470.00	407.25
471.00	431.44
472.00	404.91
473.00	400.23
474.00	404.91
475.00	418.96
476.00	435.34
477.00	427.54
478.00	409.59
479.00	419.74
480.00	420.52
481.00	443.92
482.00	395.55
483.00	406.47
484.00	404.13
485.00	422.86
486.00	427.54
487.00	428.32
488.00	442.36
489.00	438.46
490.00	439.24
491.00	443.92
492.00	429.10
493.00	435.34
494.00	440.02
495.00	419.74
496.00	395.55
497.00	371.36
498.00	419.74
499.00	433.00
500.00	447.82
501.00	443.92
502.00	420.52
503.00	387.75
504.00	354.98
505.00	388.53
506.00	432.22
507.00	440.80
508.00	456.40
509.00	426.76
510.00	438.46
511.00	416.62
512.00	415.06
513.00	398.67
514.00	395.55
515.00	397.89
516.00	411.15
517.00	420.52
518.00	424.42
519.00	408.03
520.00	378.39
521.00	376.05
522.00	397.11
523.00	432.22
524.00	432.22
525.00	425.20
526.00	414.27
527.00	422.86
528.00	415.84
529.00	426.76
530.00	418.18
531.00	440.80
532.00	424.42
533.00	421.30
534.00	427.54
535.00	419.74
536.00	425.98
537.00	409.59
538.00	422.08
539.00	447.82
540.00	444.70
541.00	440.80
542.00	429.10
543.00	431.44
544.00	450.94
545.00	427.54
546.00	436.12
547.00	429.88
548.00	447.82
549.00	461.09
550.00	474.35
551.00	469.67
552.00	445.48
553.00	431.44
554.00	443.14
555.00	452.50
556.00	436.12
557.00	417.40
558.00	376.05
559.00	386.97
560.00	383.85
561.00	415.84
562.00	400.23
563.00	425.98
564.00	421.30
565.00	415.06
566.00	408.03
567.00	404.13
568.00	418.96
569.00	408.03
570.00	406.47
571.00	418.18
572.00	414.27
573.00	415.06
574.00	429.10
575.00	436.90
576.00	439.24
577.00	408.03
578.00	400.23
579.00	404.13
580.00	425.20
581.00	429.88
582.00	444.70
583.00	438.46
584.00	443.92
585.00	466.55
586.00	464.21
587.00	455.62
588.00	436.12
589.00	458.74
590.00	468.89
591.00	468.89
592.00	440.02
593.00	429.88
594.00	423.64
595.00	440.80
596.00	425.98
597.00	429.10
598.00	425.20
599.00	436.12
600.00	450.94
601.00	449.38
602.00	437.68
603.00	404.91
604.00	388.53
605.00	394.77
606.00	411.15
607.00	430.66
608.00	462.65
609.00	463.43
610.00	464.99
611.00	444.70
612.00	430.66
613.00	434.56
614.00	431.44
615.00	447.04
616.00	415.06
617.00	411.93
618.00	383.07
619.00	408.81
620.00	427.54
621.00	468.11
622.00	460.31
623.00	458.75
624.00	415.06
625.00	429.88
626.00	423.64
627.00	475.13
628.00	442.36
629.00	451.72
630.00	433.00
631.00	436.90
632.00	409.59
633.00	393.21
634.00	424.42
635.00	427.54
636.00	447.82
637.00	414.27
638.00	409.59
639.00	386.97
640.00	398.67
641.00	410.37
642.00	454.06
643.00	444.70
644.00	454.06
645.00	416.62
646.00	424.42
647.00	404.91
648.00	415.06
649.00	442.36
650.00	493.85
651.00	486.05
652.00	464.21
653.00	432.22
654.00	466.55
655.00	482.15
656.00	486.05
657.00	472.79
658.00	457.96
659.00	467.33
660.00	468.11
661.00	471.23
662.00	468.89
663.00	430.66
664.00	424.42
665.00	418.96
666.00	418.96
667.00	413.49
668.00	429.10
669.00	429.10
670.00	452.50
671.00	430.66
672.00	449.38
673.00	434.56
674.00	424.42
675.00	410.37
676.00	376.83
677.00	385.41
678.00	411.93
679.00	464.99
680.00	472.01
681.00	464.99
682.00	424.42
683.00	430.66
684.00	425.98
685.00	441.58
686.00	439.24
687.00	446.26
688.00	426.76
689.00	403.35
690.00	402.57
691.00	437.68
692.00	444.70
693.00	446.26
694.00	430.66
695.00	436.90
696.00	401.01
697.00	389.31
698.00	393.99
699.00	426.76
700.00	434.56
701.00	422.08
702.00	429.10
703.00	439.24
704.00	440.02
705.00	406.47
706.00	391.65
707.00	400.23
708.00	433.78
709.00	428.32
710.00	428.32
711.00	392.43
712.00	408.03
713.00	412.71
714.00	431.44
715.00	447.04
716.00	433.78
717.00	440.02
718.00	475.13
719.00	485.27
720.00	489.17
721.00	445.48
722.00	447.82
723.00	458.75
724.00	442.36
725.00	428.32
726.00	409.59
727.00	425.98
728.00	405.69
729.00	422.08
730.00	408.03
731.00	447.04
732.00	447.82
733.00	470.45
734.00	504.78
735.00	530.52
736.00	564.07
737.00	546.91
738.00	530.52
739.00	489.17
740.00	459.53
741.00	442.36
742.00	433.00
743.00	456.40
744.00	436.12
745.00	438.46
746.00	396.33
747.00	397.11
748.00	370.58
749.00	376.83
750.00	416.62
751.00	447.04
752.00	453.28
753.00	422.86
754.00	419.74
755.00	434.56
756.00	441.58
757.00	446.26
758.00	452.50
759.00	464.99
760.00	484.49
761.00	500.09
762.00	504.00
763.00	503.22
764.00	492.29
765.00	481.37
766.00	473.57
767.00	461.09
768.00	446.26
769.00	433.00
770.00	418.18
771.00	431.44
772.00	443.14
773.00	450.16
774.00	429.88
775.00	394.77
776.00	392.43
777.00	405.69
778.00	443.92
779.00	479.81
780.00	504.78
781.00	541.44
782.00	516.48
783.00	607.76
784.00	577.33
785.00	589.82
786.00	471.23
787.00	457.18
788.00	434.56
789.00	417.40
790.00	413.49
791.00	419.74
792.00	422.86
793.00	389.31
794.00	394.77
795.00	408.81
796.00	443.14
797.00	433.00
798.00	439.24
799.00	456.40
800.00	475.13
801.00	506.34
802.00	499.31
803.00	490.73
804.00	453.28
805.00	443.92
806.00	438.46
807.00	429.88
808.00	429.88
809.00	427.54
810.00	466.55
811.00	440.80
812.00	443.92
813.00	412.71
814.00	457.96
815.00	450.94
816.00	479.81
817.00	434.56
818.00	442.36
819.00	401.79
820.00	430.66
821.00	440.02
822.00	468.11
823.00	503.22
824.00	496.97
825.00	505.56
826.00	479.03
827.00	467.33
828.00	450.94
829.00	436.90
830.00	468.11
831.00	448.60
832.00	461.09
833.00	451.72
834.00	475.91
835.00	465.77
836.00	440.02
837.00	438.46
838.00	405.69
839.00	415.06
840.00	411.15
841.00	468.89
842.00	489.17
843.00	490.73
844.00	457.18
845.00	433.78
846.00	420.52
847.00	430.66
848.00	440.02
849.00	464.99
850.00	488.39
851.00	471.23
852.00	469.67
853.00	457.96
854.00	440.02
855.00	443.92
856.00	435.34
857.00	483.71
858.00	454.06
859.00	450.16
860.00	439.24
861.00	464.99
862.00	488.39
863.00	468.89
864.00	456.40
865.00	417.40
866.00	429.10
867.00	393.99
868.00	392.43
869.00	360.44
870.00	406.47
871.00	410.37
872.00	443.14
873.00	421.30
874.00	425.20
875.00	408.81
876.00	409.59
877.00	417.40
878.00	460.31
879.00	451.72
880.00	450.94
881.00	436.12
882.00	457.96
883.00	455.62
884.00	440.80
885.00	438.46
886.00	443.14
887.00	454.06
888.00	435.34
889.00	460.31
890.00	436.90
891.00	441.58
892.00	429.10
893.00	428.32
894.00	439.24
895.00	424.42
896.00	439.24
897.00	434.56
898.00	447.04
899.00	451.72
900.00	435.34
901.00	443.92
902.00	454.06
903.00	532.86
904.00	621.02
905.00	747.41
906.00	796.56
907.00	794.22
908.00	750.53
909.00	1038.42
910.00	1050.12
911.00	1086.79
912.00	859.76
913.00	862.10
914.00	824.65
915.00	702.16
916.00	615.56
917.00	532.08
918.00	514.14
919.00	499.31
920.00	478.25
921.00	447.82
922.00	443.92
923.00	469.67
924.00	507.12
925.00	509.46
926.00	493.07
927.00	461.87
928.00	460.31
929.00	475.91
930.00	472.79
931.00	459.53
932.00	420.52
933.00	427.54
934.00	429.10
935.00	455.62
936.00	457.18
937.00	459.53
938.00	472.01
939.00	458.74
940.00	461.09
941.00	469.67
942.00	505.56
943.00	630.38
944.00	1085.23
945.00	1917.68
946.00	2952.20
947.00	3651.24
948.00	3682.44
949.00	3152.70
950.00	2312.45
951.00	1573.62
952.00	1019.69
953.00	722.45
954.00	581.23
955.00	513.36
956.00	464.21
957.00	461.87
958.00	429.10
959.00	443.92
960.00	440.02
961.00	468.89
962.00	465.77
963.00	463.43
964.00	450.94
965.00	447.82
966.00	445.48
967.00	446.26
968.00	439.24
969.00	427.54
970.00	438.46
971.00	455.62
972.00	471.23
973.00	462.65
974.00	483.71
975.00	484.49
976.00	479.03
977.00	449.38
978.00	433.00
979.00	467.33
980.00	463.43
981.00	491.51
982.00	475.13
983.00	501.65
984.00	465.77
985.00	440.02
986.00	407.25
987.00	422.08
988.00	436.12
989.00	467.33
990.00	464.99
991.00	464.99
992.00	444.70
993.00	429.88
994.00	433.00
995.00	426.76
996.00	454.06
997.00	444.70
998.00	439.24
999.00	442.36
1000.00	455.62
1001.00	463.43
1002.00	482.93
1003.00	479.81
1004.00	500.87
1005.00	478.25
1006.00	489.17
1007.00	481.37
1008.00	474.35
1009.00	473.57
1010.00	485.27
1011.00	479.81
1012.00	464.21
1013.00	442.36
1014.00	455.62
1015.00	454.06
1016.00	462.65
1017.00	456.40
1018.00	440.80
1019.00	449.38
1020.00	440.80
1021.00	447.04
1022.00	444.70
1023.00	471.23
1024.00	482.15
1025.00	470.45
1026.00	446.26
1027.00	447.04
1028.00	434.56
1029.00	422.86
1030.00	437.68
1031.00	456.40
1032.00	466.55
1033.00	443.14
1034.00	411.93
1035.00	431.44
1036.00	459.53
1037.00	496.19
1038.00	473.57
1039.00	433.00
1040.00	454.84
1041.00	480.59
1042.00	508.68
1043.00	499.31
1044.00	497.75
1045.00	539.88
1046.00	550.03
1047.00	543.00
1048.00	514.92
1049.00	482.93
1050.00	483.71
1051.00	464.99
1052.00	461.09
1053.00	452.50
1054.00	440.80
1055.00	425.98
1056.00	418.96
1057.00	394.77
1058.00	401.01
1059.00	405.69
1060.00	450.16
1061.00	465.77
1062.00	468.89
1063.00	443.92
1064.00	444.70
1065.00	467.33
1066.00	474.35
1067.00	449.38
1068.00	427.54
1069.00	432.22
1070.00	453.28
1071.00	462.65
1072.00	459.53
1073.00	455.62
1074.00	440.02
1075.00	440.80
1076.00	448.60
1077.00	457.96
1078.00	456.40
1079.00	476.69
1080.00	482.15
1081.00	514.14
1082.00	478.25
1083.00	461.09
1084.00	415.06
1085.00	429.10
1086.00	447.04
1087.00	467.33
1088.00	476.69
1089.00	484.49
1090.00	480.59
1091.00	490.73
1092.00	470.45
1093.00	471.23
1094.00	468.11
1095.00	501.65
1096.00	496.97
1097.00	482.93
1098.00	489.95
1099.00	518.04
1100.00	567.97
1101.00	552.37
1102.00	572.65
1103.00	538.32
1104.00	553.15
1105.00	521.16
1106.00	494.63
1107.00	451.72
1108.00	426.76
1109.00	415.84
1110.00	411.93
1111.00	436.90
1112.00	459.53
1113.00	454.06
1114.00	432.22
1115.00	440.02
1116.00	451.72
1117.00	477.47
1118.00	476.69
1119.00	490.73
1120.00	507.90
1121.00	513.36
1122.00	531.30
1123.00	520.38
1124.00	512.58
1125.00	487.61
1126.00	483.71
1127.00	489.17
1128.00	506.34
1129.00	494.63
1130.00	493.07
1131.00	461.09
1132.00	466.55
1133.00	451.72
1134.00	489.95
1135.00	493.07
1136.00	507.12
1137.00	490.73
1138.00	502.43
1139.00	520.38
1140.00	521.16
1141.00	532.08
1142.00	505.56
1143.00	525.06
1144.00	493.07
1145.00	494.63
1146.00	481.37
1147.00	488.39
1148.00	467.33
1149.00	459.53
1150.00	456.40
1151.00	475.91
1152.00	482.93
1153.00	495.41
1154.00	520.38
1155.00	563.29
1156.00	638.19
1157.00	698.26
1158.00	711.52
1159.00	671.73
1160.00	610.10
1161.00	578.11
1162.00	562.51
1163.00	614.78
1164.00	766.92
1165.00	1022.03
1166.00	1377.02
1167.00	1637.59
1168.00	1735.12
1169.00	1572.84
1170.00	1298.22
1171.00	1036.08
1172.00	848.83
1173.00	722.45
1174.00	659.25
1175.00	612.44
1176.00	614.00
1177.00	592.94
1178.00	577.33
1179.00	561.73
1180.00	576.55
1181.00	628.82
1182.00	650.67
1183.00	651.45
1184.00	650.67
1185.00	642.87
1186.00	634.29
1187.00	637.41
1188.00	683.44
1189.00	724.79
1190.00	790.32
1191.00	834.79
1192.00	884.72
1193.00	898.77
1194.00	876.92
1195.00	837.91
1196.00	790.32
1197.00	790.32
1198.00	849.61
1199.00	973.66
1200.00	1174.95
1201.00	1390.28
1202.00	1490.14
1203.00	1494.82
1204.00	1360.63
1205.00	1298.22
1206.00	1165.59
1207.00	1122.68
1208.00	1086.01
1209.00	1139.06
1210.00	1194.45
1211.00	1270.13
1212.00	1359.85
1213.00	1520.57
1214.00	1696.89
1215.00	1998.82
1216.00	2516.86
1217.00	5676.58
1218.00	21145.96
1219.00	41903.39
1220.00	59948.92
1221.00	65535.00
1222.00	65535.00
1223.00	65535.00
1224.00	65535.00
1225.00	65347.76
1226.00	56312.51
1227.00	40656.67
1228.00	22074.37
1229.00	10789.09
1230.00	5554.87
1231.00	3195.61
1232.00	2275.00
1233.00	1882.57
1234.00	1670.36
1235.00	1605.61
1236.00	2076.84
1237.00	3782.31
1238.00	7077.00
1239.00	11568.49
1240.00	15241.57
1241.00	16343.18
1242.00	14560.47
1243.00	11208.05
1244.00	7668.38
1245.00	4800.44
1246.00	2788.36
1247.00	1771.79
1248.00	1203.82
1249.00	983.02
1250.00	934.65
1251.00	959.62
1252.00	1062.60
1253.00	1134.38
1254.00	1211.62
1255.00	1217.86
1256.00	1185.09
1257.00	1142.18
1258.00	1047.78
1259.00	992.39
1260.00	924.51
1261.00	885.50
1262.00	848.05
1263.00	823.09
1264.00	828.55
1265.00	802.80
1266.00	777.06
1267.00	768.48
1268.00	772.38
1269.00	798.90
1270.00	773.16
1271.00	802.80
1272.00	791.10
1273.00	830.89
1274.00	857.42
1275.00	1250.63
1276.00	2948.29
1277.00	7189.35
1278.00	14654.09
1279.00	23022.29
1280.00	28734.76
1281.00	28805.75
1282.00	24529.59
1283.00	17930.84
1284.00	11724.52
1285.00	6707.98
1286.00	3648.90
1287.00	2098.68
1288.00	1373.89
1289.00	1039.98
1290.00	847.27
1291.00	792.66
1292.00	811.39
1293.00	852.74
1294.00	890.18
1295.00	1041.54
1296.00	1678.16
1297.00	2962.34
1298.00	4738.80
1299.00	6274.98
1300.00	6847.63
1301.00	6342.07
1302.00	5112.51
1303.00	3657.48
1304.00	2419.33
1305.00	1558.80
1306.00	1180.41
1307.00	974.44
1308.00	890.18
1309.00	800.46
1310.00	777.06
1311.00	694.36
1312.00	671.73
1313.00	628.04
1314.00	619.46
1315.00	586.69
1316.00	582.01
1317.00	608.54
1318.00	620.24
1319.00	592.94
1320.00	548.47
1321.00	514.92
1322.00	519.60
1323.00	518.82
1324.00	540.66
1325.00	564.85
1326.00	596.06
1327.00	582.01
1328.00	584.35
1329.00	650.67
1330.00	987.71
1331.00	1882.57
1332.00	3462.43
1333.00	5449.55
1334.00	7034.87
1335.00	7444.46
1336.00	6749.32
1337.00	5270.89
1338.00	3714.43
1339.00	2329.61
1340.00	1414.46
1341.00	969.76
1342.00	790.32
1343.00	743.51
1344.00	677.98
1345.00	643.65
1346.00	599.96
1347.00	636.63
1348.00	630.38
1349.00	640.53
1350.00	623.36
1351.00	667.83
1352.00	678.76
1353.00	699.82
1354.00	689.68
1355.00	743.51
1356.00	773.94
