SpectraSuite Data File
++++++++++++++++++++++++++++++++++++
Date: Thu Nov 16 13:55:15 EST 2017
User: cheriyan
Dark Spectrum Present: No
Reference Spectrum Present: No
Number of Sampled Component Spectra: 1
Spectrometers: USB2+H05261
Integration Time (usec): 100000 (USB2+H05261)
Spectra Averaged: 1 (USB2+H05261)
Boxcar Smoothing: 1 (USB2+H05261)
Correct for Electrical Dark: No (USB2+H05261)
Strobe/Lamp Enabled: No (USB2+H05261)
Correct for Detector Non-linearity: No (USB2+H05261)
Correct for Stray Light: No (USB2+H05261)
Number of Pixels in Processed Spectrum: 2048
>>>>>Begin Processed Spectral Data<<<<<
0.00	355.76
1.00	355.76
2.00	325.33
3.00	284.77
4.00	250.44
5.00	234.05
6.00	236.39
7.00	244.20
8.00	235.61
9.00	235.61
10.00	220.01
11.00	231.71
12.00	215.33
13.00	224.69
14.00	205.19
15.00	227.81
16.00	243.42
17.00	272.28
18.00	281.64
19.00	287.11
20.00	291.01
21.00	286.33
22.00	293.35
23.00	313.63
24.00	340.16
25.00	323.77
26.00	315.97
27.00	316.75
28.00	344.84
29.00	374.49
30.00	380.73
31.00	348.74
32.00	356.54
33.00	351.08
34.00	400.23
35.00	379.95
36.00	402.57
37.00	391.65
38.00	399.45
39.00	390.09
40.00	402.57
41.00	437.68
42.00	456.40
43.00	455.62
44.00	418.18
45.00	397.11
46.00	408.03
47.00	451.72
48.00	461.09
49.00	450.94
50.00	449.38
51.00	463.43
52.00	467.33
53.00	453.28
54.00	425.98
55.00	394.77
56.00	402.57
57.00	407.25
58.00	439.24
59.00	400.23
60.00	408.81
61.00	408.81
62.00	429.10
63.00	415.06
64.00	383.07
65.00	378.39
66.00	398.67
67.00	411.93
68.00	407.25
69.00	389.31
70.00	386.19
71.00	381.51
72.00	381.51
73.00	394.77
74.00	414.27
75.00	435.34
76.00	407.25
77.00	418.96
78.00	417.40
79.00	429.88
80.00	419.74
81.00	406.47
82.00	418.18
83.00	404.91
84.00	401.79
85.00	401.79
86.00	378.39
87.00	389.31
88.00	380.73
89.00	398.67
90.00	387.75
91.00	412.71
92.00	415.06
93.00	415.06
94.00	399.45
95.00	401.79
96.00	388.53
97.00	374.49
98.00	376.05
99.00	393.21
100.00	389.31
101.00	386.97
102.00	397.11
103.00	413.49
104.00	414.27
105.00	406.47
106.00	429.88
107.00	440.02
108.00	443.92
109.00	433.00
110.00	411.93
111.00	411.15
112.00	387.75
113.00	393.99
114.00	381.51
115.00	371.36
116.00	408.81
117.00	434.56
118.00	457.18
119.00	412.71
120.00	401.01
121.00	383.07
122.00	411.15
123.00	411.93
124.00	428.32
125.00	422.86
126.00	395.55
127.00	385.41
128.00	369.02
129.00	396.33
130.00	399.45
131.00	418.18
132.00	426.76
133.00	425.20
134.00	417.40
135.00	424.42
136.00	439.24
137.00	429.10
138.00	424.42
139.00	426.76
140.00	424.42
141.00	411.15
142.00	400.23
143.00	425.20
144.00	415.06
145.00	448.60
146.00	460.31
147.00	500.87
148.00	489.95
149.00	471.23
150.00	451.72
151.00	420.52
152.00	391.65
153.00	391.65
154.00	406.47
155.00	426.76
156.00	415.06
157.00	418.96
158.00	435.34
159.00	428.32
160.00	433.00
161.00	429.88
162.00	479.81
163.00	454.06
164.00	422.86
165.00	387.75
166.00	399.45
167.00	426.76
168.00	412.71
169.00	408.81
170.00	409.59
171.00	390.09
172.00	396.33
173.00	377.61
174.00	408.81
175.00	411.15
176.00	431.44
177.00	399.45
178.00	398.67
179.00	375.27
180.00	404.13
181.00	383.07
182.00	412.71
183.00	429.10
184.00	441.58
185.00	431.44
186.00	401.79
187.00	377.61
188.00	366.68
189.00	373.71
190.00	407.25
191.00	414.27
192.00	409.59
193.00	433.78
194.00	442.36
195.00	515.70
196.00	537.54
197.00	560.17
198.00	509.46
199.00	454.84
200.00	438.46
201.00	446.26
202.00	443.92
203.00	422.08
204.00	404.91
205.00	414.27
206.00	415.06
207.00	422.86
208.00	407.25
209.00	418.18
210.00	409.59
211.00	438.46
212.00	437.68
213.00	419.74
214.00	382.29
215.00	362.78
216.00	378.39
217.00	409.59
218.00	437.68
219.00	440.80
220.00	437.68
221.00	428.32
222.00	424.42
223.00	432.22
224.00	415.06
225.00	424.42
226.00	410.37
227.00	415.84
228.00	411.93
229.00	408.81
230.00	393.99
231.00	378.39
232.00	386.19
233.00	422.08
234.00	427.54
235.00	415.06
236.00	383.85
237.00	386.97
238.00	376.05
239.00	373.71
240.00	379.17
241.00	404.13
242.00	429.10
243.00	415.06
244.00	414.27
245.00	407.25
246.00	399.45
247.00	415.06
248.00	404.13
249.00	418.96
250.00	394.77
251.00	401.01
252.00	393.21
253.00	402.57
254.00	437.68
255.00	466.55
256.00	468.89
257.00	436.12
258.00	438.46
259.00	438.46
260.00	447.04
261.00	431.44
262.00	430.66
263.00	425.98
264.00	409.59
265.00	411.93
266.00	438.46
267.00	492.29
268.00	522.72
269.00	525.84
270.00	504.78
271.00	538.32
272.00	574.21
273.00	601.52
274.00	612.44
275.00	592.94
276.00	592.16
277.00	550.81
278.00	526.62
279.00	530.52
280.00	529.74
281.00	506.34
282.00	450.94
283.00	395.55
284.00	405.69
285.00	386.19
286.00	396.33
287.00	401.79
288.00	423.64
289.00	413.49
290.00	392.43
291.00	406.47
292.00	427.54
293.00	440.02
294.00	425.98
295.00	411.93
296.00	413.49
297.00	397.89
298.00	415.06
299.00	408.81
300.00	408.03
301.00	406.47
302.00	417.40
303.00	437.68
304.00	457.96
305.00	472.01
306.00	507.90
307.00	562.51
308.00	635.07
309.00	678.76
310.00	664.71
311.00	638.19
312.00	591.38
313.00	543.78
314.00	475.13
315.00	449.38
316.00	447.04
317.00	447.82
318.00	456.40
319.00	425.20
320.00	418.18
321.00	397.89
322.00	382.29
323.00	361.22
324.00	354.98
325.00	391.65
326.00	422.08
327.00	442.36
328.00	439.24
329.00	430.66
330.00	402.57
331.00	409.59
332.00	411.15
333.00	417.40
334.00	410.37
335.00	427.54
336.00	451.72
337.00	445.48
338.00	444.70
339.00	427.54
340.00	442.36
341.00	427.54
342.00	447.04
343.00	429.10
344.00	450.16
345.00	477.47
346.00	568.75
347.00	661.59
348.00	737.27
349.00	754.43
350.00	721.67
351.00	645.99
352.00	583.57
353.00	560.95
354.00	569.53
355.00	567.97
356.00	519.60
357.00	460.31
358.00	434.56
359.00	429.10
360.00	427.54
361.00	428.32
362.00	436.12
363.00	448.60
364.00	423.64
365.00	420.52
366.00	420.52
367.00	433.00
368.00	429.10
369.00	436.12
370.00	437.68
371.00	445.48
372.00	420.52
373.00	435.34
374.00	422.86
375.00	435.34
376.00	428.32
377.00	443.14
378.00	431.44
379.00	428.32
380.00	414.27
381.00	420.52
382.00	401.79
383.00	401.79
384.00	401.79
385.00	411.15
386.00	412.71
387.00	418.18
388.00	417.40
389.00	418.18
390.00	421.30
391.00	426.76
392.00	423.64
393.00	445.48
394.00	465.77
395.00	482.93
396.00	476.69
397.00	448.60
398.00	441.58
399.00	419.74
400.00	422.08
401.00	425.98
402.00	428.32
403.00	429.10
404.00	418.96
405.00	415.84
406.00	410.37
407.00	418.18
408.00	404.91
409.00	411.93
410.00	404.13
411.00	415.84
412.00	404.91
413.00	418.18
414.00	408.81
415.00	425.98
416.00	401.01
417.00	413.49
418.00	402.57
419.00	411.15
420.00	427.54
421.00	443.14
422.00	416.62
423.00	390.87
424.00	369.02
425.00	378.39
426.00	378.39
427.00	359.66
428.00	391.65
429.00	433.00
430.00	467.33
431.00	436.90
432.00	404.13
433.00	400.23
434.00	406.47
435.00	394.77
436.00	379.95
437.00	381.51
438.00	383.85
439.00	383.85
440.00	395.55
441.00	417.40
442.00	441.58
443.00	460.31
444.00	452.50
445.00	436.90
446.00	440.80
447.00	453.28
448.00	462.65
449.00	436.12
450.00	436.90
451.00	451.72
452.00	471.23
453.00	464.99
454.00	458.74
455.00	437.68
456.00	448.60
457.00	433.78
458.00	433.78
459.00	437.68
460.00	451.72
461.00	447.82
462.00	414.27
463.00	412.71
464.00	415.84
465.00	436.12
466.00	425.20
467.00	417.40
468.00	433.00
469.00	428.32
470.00	422.08
471.00	397.89
472.00	397.89
473.00	393.21
474.00	379.17
475.00	357.32
476.00	383.85
477.00	380.73
478.00	408.81
479.00	412.71
480.00	423.64
481.00	441.58
482.00	419.74
483.00	400.23
484.00	385.41
485.00	407.25
486.00	439.24
487.00	390.87
488.00	384.63
489.00	399.45
490.00	412.71
491.00	403.35
492.00	409.59
493.00	457.18
494.00	486.05
495.00	436.12
496.00	412.71
497.00	374.49
498.00	401.79
499.00	423.64
500.00	456.40
501.00	431.44
502.00	418.18
503.00	409.59
504.00	440.80
505.00	446.26
506.00	456.40
507.00	444.70
508.00	444.70
509.00	416.62
510.00	422.86
511.00	407.25
512.00	399.45
513.00	387.75
514.00	401.79
515.00	420.52
516.00	435.34
517.00	435.34
518.00	429.10
519.00	420.52
520.00	418.18
521.00	418.18
522.00	436.90
523.00	405.69
524.00	404.91
525.00	385.41
526.00	409.59
527.00	419.74
528.00	403.35
529.00	401.01
530.00	393.99
531.00	425.98
532.00	432.22
533.00	429.88
534.00	447.04
535.00	458.75
536.00	449.38
537.00	417.40
538.00	393.21
539.00	409.59
540.00	393.21
541.00	396.33
542.00	382.29
543.00	386.19
544.00	407.25
545.00	433.78
546.00	461.09
547.00	482.93
548.00	482.93
549.00	485.27
550.00	458.74
551.00	467.33
552.00	436.90
553.00	448.60
554.00	408.81
555.00	429.10
556.00	405.69
557.00	443.92
558.00	425.98
559.00	437.68
560.00	395.55
561.00	413.49
562.00	390.09
563.00	387.75
564.00	388.53
565.00	424.42
566.00	463.43
567.00	467.33
568.00	454.84
569.00	421.30
570.00	397.11
571.00	389.31
572.00	426.76
573.00	441.58
574.00	452.50
575.00	437.68
576.00	465.77
577.00	450.94
578.00	433.00
579.00	379.17
580.00	382.29
581.00	394.77
582.00	414.27
583.00	417.40
584.00	396.33
585.00	379.17
586.00	392.43
587.00	414.27
588.00	438.46
589.00	426.76
590.00	429.88
591.00	455.62
592.00	480.59
593.00	497.75
594.00	471.23
595.00	454.06
596.00	433.78
597.00	437.68
598.00	429.10
599.00	417.40
600.00	428.32
601.00	411.15
602.00	403.35
603.00	393.21
604.00	428.32
605.00	445.48
606.00	433.78
607.00	416.62
608.00	443.92
609.00	458.75
610.00	450.94
611.00	422.86
612.00	401.01
613.00	399.45
614.00	408.81
615.00	391.65
616.00	408.03
617.00	408.81
618.00	434.56
619.00	424.42
620.00	413.49
621.00	418.96
622.00	418.96
623.00	413.49
624.00	415.06
625.00	422.86
626.00	433.00
627.00	422.86
628.00	452.50
629.00	474.35
630.00	470.45
631.00	443.14
632.00	420.52
633.00	439.24
634.00	446.26
635.00	435.34
636.00	429.88
637.00	399.45
638.00	396.33
639.00	409.59
640.00	422.08
641.00	465.77
642.00	452.50
643.00	444.70
644.00	414.27
645.00	430.66
646.00	438.46
647.00	441.58
648.00	420.52
649.00	428.32
650.00	437.68
651.00	437.68
652.00	443.92
653.00	442.36
654.00	487.61
655.00	507.12
656.00	514.92
657.00	479.03
658.00	433.78
659.00	433.00
660.00	396.33
661.00	408.81
662.00	401.79
663.00	427.54
664.00	423.64
665.00	408.81
666.00	422.86
667.00	447.82
668.00	475.13
669.00	448.60
670.00	426.76
671.00	393.99
672.00	398.67
673.00	411.15
674.00	429.10
675.00	436.12
676.00	402.57
677.00	394.77
678.00	388.53
679.00	412.71
680.00	412.71
681.00	429.88
682.00	439.24
683.00	442.36
684.00	430.66
685.00	452.50
686.00	436.12
687.00	454.06
688.00	435.34
689.00	453.28
690.00	449.38
691.00	422.86
692.00	421.30
693.00	434.56
694.00	443.14
695.00	464.21
696.00	464.99
697.00	476.69
698.00	447.04
699.00	408.81
700.00	386.19
701.00	380.73
702.00	379.17
703.00	375.27
704.00	387.75
705.00	386.97
706.00	409.59
707.00	402.57
708.00	409.59
709.00	402.57
710.00	408.03
711.00	422.86
712.00	425.20
713.00	442.36
714.00	451.72
715.00	464.99
716.00	454.84
717.00	443.92
718.00	466.55
719.00	489.17
720.00	488.39
721.00	455.62
722.00	414.27
723.00	426.76
724.00	423.64
725.00	455.62
726.00	434.56
727.00	436.90
728.00	412.71
729.00	436.12
730.00	443.92
731.00	450.94
732.00	450.16
733.00	464.21
734.00	486.05
735.00	496.97
736.00	496.19
737.00	528.96
738.00	528.96
739.00	520.38
740.00	483.71
741.00	459.53
742.00	438.46
743.00	429.88
744.00	431.44
745.00	447.82
746.00	448.60
747.00	462.65
748.00	446.26
749.00	441.58
750.00	433.00
751.00	438.46
752.00	424.42
753.00	397.11
754.00	421.30
755.00	430.66
756.00	467.33
757.00	458.74
758.00	482.93
759.00	492.29
760.00	501.65
761.00	497.75
762.00	489.17
763.00	473.57
764.00	456.40
765.00	446.26
766.00	424.42
767.00	411.15
768.00	413.49
769.00	408.03
770.00	388.53
771.00	388.53
772.00	403.35
773.00	454.84
774.00	461.87
775.00	472.79
776.00	431.44
777.00	432.22
778.00	454.06
779.00	501.65
780.00	537.54
781.00	582.01
782.00	595.28
783.00	624.14
784.00	559.39
785.00	523.50
786.00	447.04
787.00	448.60
788.00	436.12
789.00	432.22
790.00	436.90
791.00	443.14
792.00	451.72
793.00	447.82
794.00	444.70
795.00	448.60
796.00	445.48
797.00	447.82
798.00	465.77
799.00	507.90
800.00	513.36
801.00	508.68
802.00	458.74
803.00	475.13
804.00	470.45
805.00	473.57
806.00	452.50
807.00	425.20
808.00	428.32
809.00	437.68
810.00	458.74
811.00	447.04
812.00	424.42
813.00	407.25
814.00	408.03
815.00	431.44
816.00	422.08
817.00	425.20
818.00	410.37
819.00	422.86
820.00	433.78
821.00	464.99
822.00	493.85
823.00	535.20
824.00	546.91
825.00	534.42
826.00	497.75
827.00	454.06
828.00	450.94
829.00	436.12
830.00	466.55
831.00	451.72
832.00	468.89
833.00	472.79
834.00	498.53
835.00	499.31
836.00	489.95
837.00	461.09
838.00	457.18
839.00	455.62
840.00	472.01
841.00	482.93
842.00	436.90
843.00	444.70
844.00	427.54
845.00	454.84
846.00	449.38
847.00	440.02
848.00	468.89
849.00	485.27
850.00	496.19
851.00	462.65
852.00	420.52
853.00	429.88
854.00	433.78
855.00	425.98
856.00	429.88
857.00	440.02
858.00	458.75
859.00	457.96
860.00	440.02
861.00	443.14
862.00	429.10
863.00	450.94
864.00	434.56
865.00	434.56
866.00	423.64
867.00	440.02
868.00	438.46
869.00	425.20
870.00	417.40
871.00	420.52
872.00	425.20
873.00	443.14
874.00	452.50
875.00	457.18
876.00	422.08
877.00	396.33
878.00	405.69
879.00	432.22
880.00	454.84
881.00	440.80
882.00	432.22
883.00	418.18
884.00	432.22
885.00	414.27
886.00	454.06
887.00	446.26
888.00	486.83
889.00	470.45
890.00	460.31
891.00	467.33
892.00	454.06
893.00	464.21
894.00	443.14
895.00	436.12
896.00	431.44
897.00	441.58
898.00	436.12
899.00	450.16
900.00	450.94
901.00	482.15
902.00	514.92
903.00	574.99
904.00	655.35
905.00	734.93
906.00	780.18
907.00	769.26
908.00	762.23
909.00	1022.03
910.00	1055.58
911.00	1100.05
912.00	858.20
913.00	865.22
914.00	806.70
915.00	741.17
916.00	661.59
917.00	587.47
918.00	504.00
919.00	458.74
920.00	461.87
921.00	484.49
922.00	498.53
923.00	472.79
924.00	453.28
925.00	417.40
926.00	418.96
927.00	425.20
928.00	450.16
929.00	457.18
930.00	457.18
931.00	440.80
932.00	427.54
933.00	462.65
934.00	454.06
935.00	464.21
936.00	435.34
937.00	464.99
938.00	472.79
939.00	472.79
940.00	500.87
941.00	508.68
942.00	541.44
943.00	664.71
944.00	1095.37
945.00	1918.46
946.00	2902.26
947.00	3618.47
948.00	3687.12
949.00	3185.47
950.00	2401.39
951.00	1648.52
952.00	1068.06
953.00	713.08
954.00	539.88
955.00	507.12
956.00	496.19
957.00	528.96
958.00	491.51
959.00	482.93
960.00	448.60
961.00	459.53
962.00	454.84
963.00	458.74
964.00	456.40
965.00	451.72
966.00	447.82
967.00	474.35
968.00	484.49
969.00	496.19
970.00	461.87
971.00	447.82
972.00	431.44
973.00	411.93
974.00	411.93
975.00	429.10
976.00	454.84
977.00	447.82
978.00	429.88
979.00	422.08
980.00	436.12
981.00	468.11
982.00	444.70
983.00	426.76
984.00	376.05
985.00	413.49
986.00	421.30
987.00	433.00
988.00	403.35
989.00	408.81
990.00	436.90
991.00	437.68
992.00	422.86
993.00	397.89
994.00	419.74
995.00	422.86
996.00	446.26
997.00	455.62
998.00	471.23
999.00	444.70
1000.00	447.82
1001.00	436.90
1002.00	451.72
1003.00	443.14
1004.00	448.60
1005.00	440.80
1006.00	453.28
1007.00	450.16
1008.00	441.58
1009.00	442.36
1010.00	440.80
1011.00	437.68
1012.00	452.50
1013.00	457.18
1014.00	490.73
1015.00	448.60
1016.00	464.21
1017.00	448.60
1018.00	460.31
1019.00	433.78
1020.00	433.78
1021.00	425.20
1022.00	443.92
1023.00	444.70
1024.00	458.75
1025.00	444.70
1026.00	419.74
1027.00	421.30
1028.00	395.55
1029.00	408.03
1030.00	386.19
1031.00	407.25
1032.00	421.30
1033.00	424.42
1034.00	434.56
1035.00	404.91
1036.00	429.88
1037.00	440.80
1038.00	486.05
1039.00	473.57
1040.00	479.81
1041.00	475.13
1042.00	475.91
1043.00	472.79
1044.00	493.07
1045.00	543.78
1046.00	534.42
1047.00	510.24
1048.00	442.36
1049.00	456.40
1050.00	447.04
1051.00	434.56
1052.00	438.46
1053.00	410.37
1054.00	427.54
1055.00	397.89
1056.00	393.99
1057.00	388.53
1058.00	408.81
1059.00	448.60
1060.00	445.48
1061.00	446.26
1062.00	447.04
1063.00	457.96
1064.00	418.18
1065.00	410.37
1066.00	393.21
1067.00	437.68
1068.00	435.34
1069.00	461.87
1070.00	458.74
1071.00	462.65
1072.00	448.60
1073.00	443.92
1074.00	449.38
1075.00	462.65
1076.00	477.47
1077.00	472.01
1078.00	490.73
1079.00	495.41
1080.00	490.73
1081.00	454.84
1082.00	420.52
1083.00	406.47
1084.00	425.98
1085.00	436.12
1086.00	453.28
1087.00	440.80
1088.00	407.25
1089.00	418.18
1090.00	431.44
1091.00	458.74
1092.00	433.78
1093.00	428.32
1094.00	422.08
1095.00	434.56
1096.00	438.46
1097.00	457.18
1098.00	485.27
1099.00	517.26
1100.00	575.77
1101.00	573.43
1102.00	576.55
1103.00	546.91
1104.00	519.60
1105.00	476.69
1106.00	446.26
1107.00	472.79
1108.00	493.07
1109.00	471.23
1110.00	440.80
1111.00	405.69
1112.00	450.16
1113.00	453.28
1114.00	451.72
1115.00	434.56
1116.00	475.13
1117.00	502.43
1118.00	507.12
1119.00	480.59
1120.00	492.29
1121.00	488.39
1122.00	511.80
1123.00	486.83
1124.00	504.78
1125.00	450.16
1126.00	445.48
1127.00	421.30
1128.00	450.16
1129.00	452.50
1130.00	450.16
1131.00	441.58
1132.00	471.23
1133.00	486.05
1134.00	506.34
1135.00	499.31
1136.00	484.49
1137.00	495.41
1138.00	531.30
1139.00	549.25
1140.00	537.54
1141.00	489.17
1142.00	476.69
1143.00	466.55
1144.00	473.57
1145.00	469.67
1146.00	494.63
1147.00	509.46
1148.00	538.32
1149.00	528.18
1150.00	520.38
1151.00	518.82
1152.00	518.82
1153.00	550.81
1154.00	563.29
1155.00	632.72
1156.00	695.14
1157.00	731.03
1158.00	738.83
1159.00	719.32
1160.00	699.04
1161.00	637.41
1162.00	568.75
1163.00	606.20
1164.00	768.48
1165.00	1077.43
1166.00	1387.16
1167.00	1617.31
1168.00	1643.84
1169.00	1520.57
1170.00	1287.29
1171.00	1047.00
1172.00	841.03
1173.00	721.67
1174.00	635.07
1175.00	602.30
1176.00	572.65
1177.00	585.91
1178.00	573.43
1179.00	562.51
1180.00	575.77
1181.00	583.57
1182.00	604.64
1183.00	609.32
1184.00	630.38
1185.00	651.45
1186.00	644.43
1187.00	655.35
1188.00	642.87
1189.00	682.66
1190.00	716.98
1191.00	783.30
1192.00	845.71
1193.00	874.58
1194.00	869.12
1195.00	816.85
1196.00	826.21
1197.00	830.11
1198.00	903.45
1199.00	1021.25
1200.00	1189.77
1201.00	1400.42
1202.00	1465.18
1203.00	1465.96
1204.00	1362.97
1205.00	1275.59
1206.00	1176.51
1207.00	1114.10
1208.00	1112.53
1209.00	1141.40
1210.00	1183.53
1211.00	1243.60
1212.00	1343.47
1213.00	1489.36
1214.00	1678.94
1215.00	2020.66
1216.00	2567.57
1217.00	5834.18
1218.00	21246.60
1219.00	41983.75
1220.00	59924.74
1221.00	65535.00
1222.00	65535.00
1223.00	65535.00
1224.00	65535.00
1225.00	65318.11
1226.00	56208.75
1227.00	40610.64
1228.00	22042.39
1229.00	10844.48
1230.00	5562.67
1231.00	3209.65
1232.00	2267.20
1233.00	1852.92
1234.00	1673.48
1235.00	1641.50
1236.00	2105.70
1237.00	3739.40
1238.00	7044.23
1239.00	11615.30
1240.00	15349.23
1241.00	16427.44
1242.00	14541.75
1243.00	11158.11
1244.00	7668.38
1245.00	4789.52
1246.00	2807.86
1247.00	1735.12
1248.00	1224.88
1249.00	971.32
1250.00	897.21
1251.00	924.51
1252.00	1054.80
1253.00	1166.37
1254.00	1225.66
1255.00	1224.88
1256.00	1193.67
1257.00	1117.22
1258.00	1016.57
1259.00	908.91
1260.00	891.74
1261.00	866.78
1262.00	906.57
1263.00	907.35
1264.00	880.82
1265.00	799.68
1266.00	763.01
1267.00	763.79
1268.00	807.48
1269.00	811.39
1270.00	823.09
1271.00	802.02
1272.00	781.74
1273.00	802.80
1274.00	854.30
1275.00	1243.60
1276.00	2960.78
1277.00	7170.62
1278.00	14658.00
1279.00	22856.89
1280.00	28540.49
1281.00	28603.69
1282.00	24487.46
1283.00	17906.66
1284.00	11683.17
1285.00	6694.71
1286.00	3690.24
1287.00	2139.25
1288.00	1384.04
1289.00	1042.32
1290.00	913.59
1291.00	876.92
1292.00	894.08
1293.00	902.67
1294.00	906.57
1295.00	1079.77
1296.00	1719.51
1297.00	2957.66
1298.00	4677.95
1299.00	6164.19
1300.00	6773.51
1301.00	6285.90
1302.00	5069.60
1303.00	3605.99
1304.00	2396.71
1305.00	1565.04
1306.00	1174.95
1307.00	966.64
1308.00	870.68
1309.00	823.09
1310.00	761.45
1311.00	698.26
1312.00	653.79
1313.00	650.67
1314.00	602.30
1315.00	603.08
1316.00	560.95
1317.00	588.25
1318.00	557.05
1319.00	569.53
1320.00	574.21
1321.00	587.47
1322.00	580.45
1323.00	593.72
1324.00	572.65
1325.00	593.72
1326.00	542.22
1327.00	544.56
1328.00	513.36
1329.00	611.66
1330.00	975.22
1331.00	1907.54
1332.00	3501.44
1333.00	5500.26
1334.00	7043.45
1335.00	7452.27
1336.00	6651.80
1337.00	5198.33
1338.00	3659.04
1339.00	2378.76
1340.00	1508.87
1341.00	1049.34
1342.00	826.21
1343.00	731.03
1344.00	702.94
1345.00	670.17
1346.00	646.77
1347.00	634.29
1348.00	635.85
1349.00	669.39
1350.00	635.07
1351.00	631.16
1352.00	608.54
1353.00	666.27
1354.00	702.94
1355.00	734.93
1356.00	763.01
