SpectraSuite Data File
++++++++++++++++++++++++++++++++++++
Date: Thu Nov 16 13:55:14 EST 2017
User: cheriyan
Dark Spectrum Present: No
Reference Spectrum Present: No
Number of Sampled Component Spectra: 1
Spectrometers: USB2+H05261
Integration Time (usec): 100000 (USB2+H05261)
Spectra Averaged: 1 (USB2+H05261)
Boxcar Smoothing: 1 (USB2+H05261)
Correct for Electrical Dark: No (USB2+H05261)
Strobe/Lamp Enabled: No (USB2+H05261)
Correct for Detector Non-linearity: No (USB2+H05261)
Correct for Stray Light: No (USB2+H05261)
Number of Pixels in Processed Spectrum: 2048
>>>>>Begin Processed Spectral Data<<<<<
0.00	433.00
1.00	433.00
2.00	380.73
3.00	326.89
4.00	261.36
5.00	247.32
6.00	252.78
7.00	246.54
8.00	247.32
9.00	233.27
10.00	266.04
11.00	281.64
12.00	286.33
13.00	269.16
14.00	244.98
15.00	236.39
16.00	229.37
17.00	223.13
18.00	212.21
19.00	232.49
20.00	256.68
21.00	276.18
22.00	267.60
23.00	281.64
24.00	312.85
25.00	332.36
26.00	364.34
27.00	362.00
28.00	370.58
29.00	366.68
30.00	370.58
31.00	376.83
32.00	376.05
33.00	396.33
34.00	398.67
35.00	414.27
36.00	398.67
37.00	388.53
38.00	395.55
39.00	385.41
40.00	413.49
41.00	395.55
42.00	416.62
43.00	392.43
44.00	387.75
45.00	412.71
46.00	432.22
47.00	445.48
48.00	425.98
49.00	418.18
50.00	406.47
51.00	402.57
52.00	410.37
53.00	431.44
54.00	446.26
55.00	429.88
56.00	419.74
57.00	410.37
58.00	433.78
59.00	440.02
60.00	425.20
61.00	404.13
62.00	390.87
63.00	422.86
64.00	428.32
65.00	461.09
66.00	433.78
67.00	441.58
68.00	393.21
69.00	396.33
70.00	408.81
71.00	429.10
72.00	433.00
73.00	409.59
74.00	402.57
75.00	397.89
76.00	386.19
77.00	390.87
78.00	396.33
79.00	428.32
80.00	421.30
81.00	418.96
82.00	383.85
83.00	387.75
84.00	380.73
85.00	391.65
86.00	398.67
87.00	404.91
88.00	429.10
89.00	407.25
90.00	403.35
91.00	398.67
92.00	449.38
93.00	444.70
94.00	418.18
95.00	379.17
96.00	401.79
97.00	420.52
98.00	402.57
99.00	376.83
100.00	401.01
101.00	433.00
102.00	413.49
103.00	401.01
104.00	389.31
105.00	422.86
106.00	416.62
107.00	402.57
108.00	393.21
109.00	372.93
110.00	402.57
111.00	394.77
112.00	401.01
113.00	393.21
114.00	410.37
115.00	403.35
116.00	385.41
117.00	382.29
118.00	397.89
119.00	413.49
120.00	405.69
121.00	403.35
122.00	415.84
123.00	416.62
124.00	418.18
125.00	401.01
126.00	420.52
127.00	418.18
128.00	422.86
129.00	420.52
130.00	429.88
131.00	405.69
132.00	392.43
133.00	375.27
134.00	402.57
135.00	429.88
136.00	459.53
137.00	448.60
138.00	430.66
139.00	415.06
140.00	411.93
141.00	407.25
142.00	409.59
143.00	416.62
144.00	422.86
145.00	427.54
146.00	447.04
147.00	479.81
148.00	486.05
149.00	472.79
150.00	419.74
151.00	409.59
152.00	421.30
153.00	441.58
154.00	423.64
155.00	417.40
156.00	416.62
157.00	436.90
158.00	399.45
159.00	398.67
160.00	385.41
161.00	416.62
162.00	424.42
163.00	425.20
164.00	418.18
165.00	397.89
166.00	398.67
167.00	411.15
168.00	402.57
169.00	414.27
170.00	412.71
171.00	411.93
172.00	414.27
173.00	397.89
174.00	418.96
175.00	426.76
176.00	434.56
177.00	439.24
178.00	403.35
179.00	393.21
180.00	365.90
181.00	386.97
182.00	406.47
183.00	411.15
184.00	383.85
185.00	342.50
186.00	340.16
187.00	351.08
188.00	360.44
189.00	372.93
190.00	374.49
191.00	376.83
192.00	381.51
193.00	403.35
194.00	461.09
195.00	497.75
196.00	534.42
197.00	518.82
198.00	493.07
199.00	458.75
200.00	443.14
201.00	464.99
202.00	460.31
203.00	464.21
204.00	408.81
205.00	389.31
206.00	364.34
207.00	387.75
208.00	393.21
209.00	426.76
210.00	446.26
211.00	465.77
212.00	472.01
213.00	436.12
214.00	411.15
215.00	383.85
216.00	398.67
217.00	400.23
218.00	410.37
219.00	394.77
220.00	397.89
221.00	395.55
222.00	393.21
223.00	394.77
224.00	391.65
225.00	397.11
226.00	385.41
227.00	365.90
228.00	381.51
229.00	393.99
230.00	411.93
231.00	390.09
232.00	405.69
233.00	414.27
234.00	436.90
235.00	431.44
236.00	414.27
237.00	414.27
238.00	388.53
239.00	367.46
240.00	341.72
241.00	382.29
242.00	430.66
243.00	447.04
244.00	422.08
245.00	404.13
246.00	408.03
247.00	394.77
248.00	401.79
249.00	429.10
250.00	442.36
251.00	429.88
252.00	401.79
253.00	398.67
254.00	418.18
255.00	423.64
256.00	447.82
257.00	435.34
258.00	458.74
259.00	439.24
260.00	444.70
261.00	425.98
262.00	430.66
263.00	403.35
264.00	393.99
265.00	394.77
266.00	442.36
267.00	495.41
268.00	514.92
269.00	510.24
270.00	525.06
271.00	538.32
272.00	579.67
273.00	568.75
274.00	586.69
275.00	606.20
276.00	594.50
277.00	583.57
278.00	556.27
279.00	563.29
280.00	550.81
281.00	492.29
282.00	436.12
283.00	387.75
284.00	399.45
285.00	420.52
286.00	433.00
287.00	441.58
288.00	422.08
289.00	442.36
290.00	446.26
291.00	465.77
292.00	451.72
293.00	432.22
294.00	401.79
295.00	404.13
296.00	387.75
297.00	398.67
298.00	416.62
299.00	421.30
300.00	439.24
301.00	436.12
302.00	450.94
303.00	440.80
304.00	421.30
305.00	440.02
306.00	464.99
307.00	535.98
308.00	584.35
309.00	648.33
310.00	632.72
311.00	614.00
312.00	519.60
313.00	481.37
314.00	426.76
315.00	428.32
316.00	410.37
317.00	410.37
318.00	415.06
319.00	396.33
320.00	390.87
321.00	396.33
322.00	409.59
323.00	399.45
324.00	385.41
325.00	401.01
326.00	425.20
327.00	425.98
328.00	404.13
329.00	383.85
330.00	376.83
331.00	388.53
332.00	400.23
333.00	406.47
334.00	400.23
335.00	406.47
336.00	410.37
337.00	422.08
338.00	408.81
339.00	422.08
340.00	423.64
341.00	457.96
342.00	435.34
343.00	431.44
344.00	412.71
345.00	448.60
346.00	504.78
347.00	593.72
348.00	700.60
349.00	738.83
350.00	713.86
351.00	610.88
352.00	567.19
353.00	528.18
354.00	525.84
355.00	506.34
356.00	507.90
357.00	507.90
358.00	486.83
359.00	447.82
360.00	447.82
361.00	426.76
362.00	398.67
363.00	400.23
364.00	414.27
365.00	461.87
366.00	431.44
367.00	421.30
368.00	425.98
369.00	468.89
370.00	489.95
371.00	463.43
372.00	415.06
373.00	387.75
374.00	403.35
375.00	392.43
376.00	391.65
377.00	383.07
378.00	390.87
379.00	401.79
380.00	404.13
381.00	421.30
382.00	422.86
383.00	406.47
384.00	401.79
385.00	392.43
386.00	398.67
387.00	405.69
388.00	418.96
389.00	423.64
390.00	408.81
391.00	394.77
392.00	405.69
393.00	408.03
394.00	424.42
395.00	446.26
396.00	452.50
397.00	474.35
398.00	424.42
399.00	427.54
400.00	408.03
401.00	431.44
402.00	407.25
403.00	418.96
404.00	413.49
405.00	462.65
406.00	471.23
407.00	468.11
408.00	447.82
409.00	411.15
410.00	409.59
411.00	370.58
412.00	383.07
413.00	383.07
414.00	422.08
415.00	424.42
416.00	456.40
417.00	431.44
418.00	430.66
419.00	420.52
420.00	426.76
421.00	408.03
422.00	377.61
423.00	379.95
424.00	406.47
425.00	430.66
426.00	422.08
427.00	400.23
428.00	393.99
429.00	422.86
430.00	417.40
431.00	427.54
432.00	383.85
433.00	395.55
434.00	404.13
435.00	418.96
436.00	425.20
437.00	409.59
438.00	440.02
439.00	451.72
440.00	457.18
441.00	454.84
442.00	447.82
443.00	461.87
444.00	457.96
445.00	447.82
446.00	437.68
447.00	433.78
448.00	450.16
449.00	435.34
450.00	443.14
451.00	423.64
452.00	431.44
453.00	411.93
454.00	407.25
455.00	411.93
456.00	443.92
457.00	471.23
458.00	457.18
459.00	447.04
460.00	435.34
461.00	437.68
462.00	408.03
463.00	425.20
464.00	436.90
465.00	488.39
466.00	467.33
467.00	439.24
468.00	415.84
469.00	413.49
470.00	437.68
471.00	436.90
472.00	426.76
473.00	432.22
474.00	412.71
475.00	427.54
476.00	426.76
477.00	436.12
478.00	447.04
479.00	457.96
480.00	467.33
481.00	492.29
482.00	493.07
483.00	468.11
484.00	424.42
485.00	393.99
486.00	414.27
487.00	392.43
488.00	438.46
489.00	452.50
490.00	475.13
491.00	419.74
492.00	394.77
493.00	410.37
494.00	467.33
495.00	477.47
496.00	455.62
497.00	415.06
498.00	402.57
499.00	409.59
500.00	394.77
501.00	411.93
502.00	402.57
503.00	413.49
504.00	395.55
505.00	408.81
506.00	427.54
507.00	427.54
508.00	452.50
509.00	442.36
510.00	450.94
511.00	422.08
512.00	425.20
513.00	427.54
514.00	450.94
515.00	443.92
516.00	448.60
517.00	450.16
518.00	453.28
519.00	451.72
520.00	423.64
521.00	408.81
522.00	408.81
523.00	402.57
524.00	411.93
525.00	412.71
526.00	414.27
527.00	408.03
528.00	406.47
529.00	412.71
530.00	411.15
531.00	412.71
532.00	440.80
533.00	450.16
534.00	459.53
535.00	427.54
536.00	421.30
537.00	439.24
538.00	454.06
539.00	485.27
540.00	460.31
541.00	428.32
542.00	398.67
543.00	383.85
544.00	393.21
545.00	383.07
546.00	401.01
547.00	412.71
548.00	446.26
549.00	443.92
550.00	474.35
551.00	464.99
552.00	448.60
553.00	419.74
554.00	394.77
555.00	405.69
556.00	419.74
557.00	439.24
558.00	442.36
559.00	458.75
560.00	438.46
561.00	421.30
562.00	391.65
563.00	408.81
564.00	414.27
565.00	437.68
566.00	464.21
567.00	482.15
568.00	454.84
569.00	435.34
570.00	420.52
571.00	418.96
572.00	400.23
573.00	414.27
574.00	425.98
575.00	458.75
576.00	464.99
577.00	433.00
578.00	422.08
579.00	390.87
580.00	435.34
581.00	417.40
582.00	429.88
583.00	427.54
584.00	401.01
585.00	422.08
586.00	398.67
587.00	424.42
588.00	390.09
589.00	408.81
590.00	432.22
591.00	468.89
592.00	459.53
593.00	433.78
594.00	436.90
595.00	445.48
596.00	447.04
597.00	406.47
598.00	394.77
599.00	418.96
600.00	439.24
601.00	443.92
602.00	415.06
603.00	410.37
604.00	408.03
605.00	422.08
606.00	436.12
607.00	436.12
608.00	424.42
609.00	422.08
610.00	411.15
611.00	435.34
612.00	443.14
613.00	453.28
614.00	468.11
615.00	461.87
616.00	486.83
617.00	457.18
618.00	418.18
619.00	404.91
620.00	390.87
621.00	422.08
622.00	412.71
623.00	426.76
624.00	404.13
625.00	394.77
626.00	417.40
627.00	440.02
628.00	445.48
629.00	426.76
630.00	428.32
631.00	411.15
632.00	397.89
633.00	393.99
634.00	403.35
635.00	409.59
636.00	414.27
637.00	440.80
638.00	438.46
639.00	449.38
640.00	440.80
641.00	454.84
642.00	436.90
643.00	419.74
644.00	401.79
645.00	368.24
646.00	379.17
647.00	397.89
648.00	383.85
649.00	390.09
650.00	399.45
651.00	443.14
652.00	435.34
653.00	391.65
654.00	437.68
655.00	436.12
656.00	471.23
657.00	425.20
658.00	420.52
659.00	423.64
660.00	429.10
661.00	433.78
662.00	433.00
663.00	429.10
664.00	431.44
665.00	408.81
666.00	395.55
667.00	403.35
668.00	422.08
669.00	447.04
670.00	452.50
671.00	440.80
672.00	426.76
673.00	410.37
674.00	397.89
675.00	393.21
676.00	396.33
677.00	408.81
678.00	401.01
679.00	423.64
680.00	447.82
681.00	454.06
682.00	399.45
683.00	372.93
684.00	381.51
685.00	433.00
686.00	436.90
687.00	449.38
688.00	434.56
689.00	443.14
690.00	448.60
691.00	451.72
692.00	458.74
693.00	462.65
694.00	450.16
695.00	449.38
696.00	444.70
697.00	448.60
698.00	433.78
699.00	397.11
700.00	415.06
701.00	434.56
702.00	460.31
703.00	436.12
704.00	419.74
705.00	433.78
706.00	457.96
707.00	475.91
708.00	466.55
709.00	436.90
710.00	427.54
711.00	402.57
712.00	435.34
713.00	428.32
714.00	458.75
715.00	427.54
716.00	419.74
717.00	397.89
718.00	448.60
719.00	462.65
720.00	480.59
721.00	457.18
722.00	465.77
723.00	480.59
724.00	459.53
725.00	448.60
726.00	434.56
727.00	446.26
728.00	456.40
729.00	443.92
730.00	447.04
731.00	420.52
732.00	450.16
733.00	466.55
734.00	512.58
735.00	528.96
736.00	512.58
737.00	502.44
738.00	479.81
739.00	507.90
740.00	503.22
741.00	464.21
742.00	422.08
743.00	436.90
744.00	460.31
745.00	443.92
746.00	393.21
747.00	378.39
748.00	411.15
749.00	424.42
750.00	433.00
751.00	406.47
752.00	421.30
753.00	405.69
754.00	421.30
755.00	415.06
756.00	426.76
757.00	423.64
758.00	440.02
759.00	454.84
760.00	468.11
761.00	466.55
762.00	473.57
763.00	473.57
764.00	446.26
765.00	429.88
766.00	411.93
767.00	405.69
768.00	413.49
769.00	429.88
770.00	457.18
771.00	489.17
772.00	500.09
773.00	500.87
774.00	443.92
775.00	422.86
776.00	427.54
777.00	463.43
778.00	493.85
779.00	518.04
780.00	535.98
781.00	571.09
782.00	560.17
783.00	621.80
784.00	582.79
785.00	575.77
786.00	505.56
787.00	497.75
788.00	475.91
789.00	456.40
790.00	446.26
791.00	457.18
792.00	433.78
793.00	415.06
794.00	395.55
795.00	400.23
796.00	417.40
797.00	433.00
798.00	454.84
799.00	462.65
800.00	480.59
801.00	464.99
802.00	454.84
803.00	417.40
804.00	449.38
805.00	477.47
806.00	480.59
807.00	445.48
808.00	422.08
809.00	447.04
810.00	454.84
811.00	436.90
812.00	415.84
813.00	406.47
814.00	415.06
815.00	411.15
816.00	408.03
817.00	418.18
818.00	438.46
819.00	467.33
820.00	466.55
821.00	468.89
822.00	479.81
823.00	501.65
824.00	519.60
825.00	506.34
826.00	495.41
827.00	464.99
828.00	459.53
829.00	464.99
830.00	492.29
831.00	484.49
832.00	497.75
833.00	518.04
834.00	560.17
835.00	535.98
836.00	507.90
837.00	468.11
838.00	465.77
839.00	452.50
840.00	461.09
841.00	474.35
842.00	486.83
843.00	500.09
844.00	504.00
845.00	488.39
846.00	426.76
847.00	390.09
848.00	399.45
849.00	444.70
850.00	467.33
851.00	456.40
852.00	427.54
853.00	428.32
854.00	415.84
855.00	422.86
856.00	396.33
857.00	415.06
858.00	418.96
859.00	426.76
860.00	421.30
861.00	442.36
862.00	462.65
863.00	467.33
864.00	458.75
865.00	454.06
866.00	447.04
867.00	435.34
868.00	457.18
869.00	468.11
870.00	479.03
871.00	463.43
872.00	461.87
873.00	466.55
874.00	434.56
875.00	431.44
876.00	425.20
877.00	451.72
878.00	471.23
879.00	486.05
880.00	480.59
881.00	463.43
882.00	446.26
883.00	470.45
884.00	447.82
885.00	457.96
886.00	441.58
887.00	461.87
888.00	465.77
889.00	450.94
890.00	454.06
891.00	419.74
892.00	411.15
893.00	425.98
894.00	415.84
895.00	436.90
896.00	401.01
897.00	461.87
898.00	446.26
899.00	459.53
900.00	454.84
901.00	475.13
902.00	503.22
903.00	545.34
904.00	642.87
905.00	713.86
906.00	771.60
907.00	738.05
908.00	709.96
909.00	958.06
910.00	1004.87
911.00	1074.31
912.00	897.99
913.00	929.97
914.00	909.69
915.00	777.06
916.00	638.97
917.00	536.76
918.00	478.25
919.00	465.77
920.00	463.43
921.00	484.49
922.00	475.13
923.00	471.23
924.00	454.84
925.00	436.90
926.00	449.38
927.00	425.98
928.00	465.77
929.00	454.06
930.00	457.18
931.00	437.68
932.00	429.10
933.00	441.58
934.00	455.62
935.00	465.77
936.00	448.60
937.00	427.54
938.00	422.08
939.00	450.16
940.00	475.13
941.00	482.15
942.00	523.50
943.00	692.02
944.00	1139.06
945.00	1957.47
946.00	2955.32
947.00	3680.88
948.00	3755.00
949.00	3189.37
950.00	2351.46
951.00	1572.06
952.00	1028.28
953.00	720.89
954.00	556.27
955.00	494.63
956.00	471.23
957.00	474.35
958.00	478.25
959.00	465.77
960.00	485.27
961.00	474.35
962.00	458.75
963.00	437.68
964.00	438.46
965.00	459.53
966.00	459.53
967.00	456.40
968.00	452.50
969.00	466.55
970.00	479.03
971.00	485.27
972.00	446.26
973.00	418.18
974.00	399.45
975.00	432.22
976.00	448.60
977.00	457.96
978.00	443.92
979.00	444.70
980.00	435.34
981.00	443.92
982.00	436.12
983.00	425.20
984.00	415.06
985.00	409.59
986.00	413.49
987.00	415.06
988.00	443.14
989.00	447.04
990.00	447.82
991.00	433.78
992.00	433.78
993.00	436.12
994.00	450.94
995.00	464.21
996.00	472.79
997.00	445.48
998.00	434.56
999.00	443.14
1000.00	465.77
1001.00	487.61
1002.00	476.69
1003.00	482.93
1004.00	487.61
1005.00	496.97
1006.00	456.40
1007.00	429.10
1008.00	411.15
1009.00	448.60
1010.00	463.43
1011.00	470.45
1012.00	463.43
1013.00	454.06
1014.00	459.53
1015.00	450.16
1016.00	464.21
1017.00	467.33
1018.00	475.91
1019.00	444.70
1020.00	429.88
1021.00	433.78
1022.00	466.55
1023.00	439.24
1024.00	429.10
1025.00	431.44
1026.00	474.35
1027.00	488.39
1028.00	470.45
1029.00	433.00
1030.00	427.54
1031.00	436.90
1032.00	472.79
1033.00	471.23
1034.00	454.06
1035.00	438.46
1036.00	434.56
1037.00	449.38
1038.00	450.16
1039.00	450.16
1040.00	436.12
1041.00	458.74
1042.00	489.17
1043.00	518.82
1044.00	522.72
1045.00	518.04
1046.00	510.24
1047.00	501.65
1048.00	469.67
1049.00	461.87
1050.00	475.91
1051.00	489.17
1052.00	477.47
1053.00	445.48
1054.00	425.20
1055.00	441.58
1056.00	433.78
1057.00	440.80
1058.00	426.76
1059.00	433.78
1060.00	419.74
1061.00	426.76
1062.00	447.04
1063.00	481.37
1064.00	489.95
1065.00	463.43
1066.00	457.96
1067.00	439.24
1068.00	469.67
1069.00	444.70
1070.00	457.18
1071.00	420.52
1072.00	439.24
1073.00	426.76
1074.00	463.43
1075.00	461.87
1076.00	468.11
1077.00	478.25
1078.00	475.13
1079.00	498.53
1080.00	478.25
1081.00	450.94
1082.00	440.80
1083.00	446.26
1084.00	443.14
1085.00	416.62
1086.00	401.01
1087.00	416.62
1088.00	430.66
1089.00	420.52
1090.00	465.77
1091.00	471.23
1092.00	502.44
1093.00	496.97
1094.00	490.73
1095.00	487.61
1096.00	468.89
1097.00	478.25
1098.00	493.07
1099.00	534.42
1100.00	587.47
1101.00	603.86
1102.00	594.50
1103.00	547.69
1104.00	535.98
1105.00	497.75
1106.00	502.44
1107.00	467.33
1108.00	499.31
1109.00	481.37
1110.00	467.33
1111.00	428.32
1112.00	415.06
1113.00	415.06
1114.00	412.71
1115.00	422.86
1116.00	436.90
1117.00	449.38
1118.00	461.09
1119.00	464.99
1120.00	500.09
1121.00	494.63
1122.00	527.40
1123.00	500.09
1124.00	511.02
1125.00	494.63
1126.00	493.85
1127.00	478.25
1128.00	455.62
1129.00	446.26
1130.00	447.82
1131.00	450.94
1132.00	450.16
1133.00	445.48
1134.00	435.34
1135.00	429.10
1136.00	456.40
1137.00	475.13
1138.00	521.16
1139.00	525.84
1140.00	543.00
1141.00	550.03
1142.00	571.09
1143.00	564.85
1144.00	498.53
1145.00	468.11
1146.00	461.87
1147.00	491.51
1148.00	493.85
1149.00	501.65
1150.00	498.53
1151.00	489.95
1152.00	492.29
1153.00	503.22
1154.00	532.86
1155.00	587.47
1156.00	649.89
1157.00	692.80
1158.00	728.69
1159.00	738.83
1160.00	693.58
1161.00	623.36
1162.00	571.09
1163.00	617.12
1164.00	775.50
1165.00	1072.75
1166.00	1397.30
1167.00	1639.16
1168.00	1689.87
1169.00	1579.08
1170.00	1326.30
1171.00	1051.68
1172.00	829.33
1173.00	685.00
1174.00	596.84
1175.00	567.97
1176.00	585.91
1177.00	607.76
1178.00	598.40
1179.00	576.55
1180.00	559.39
1181.00	571.09
1182.00	605.42
1183.00	664.71
1184.00	685.78
1185.00	658.47
1186.00	645.21
1187.00	646.77
1188.00	696.70
1189.00	723.23
1190.00	788.76
1191.00	870.68
1192.00	936.21
1193.00	947.92
1194.00	891.74
1195.00	860.54
1196.00	822.31
1197.00	819.97
1198.00	863.66
1199.00	1014.23
1200.00	1213.96
1201.00	1392.62
1202.00	1469.08
1203.00	1446.45
1204.00	1376.24
1205.00	1322.40
1206.00	1202.26
1207.00	1125.80
1208.00	1062.60
1209.00	1075.09
1210.00	1100.05
1211.00	1165.59
1212.00	1299.78
1213.00	1449.57
1214.00	1671.92
1215.00	1994.14
1216.00	2522.32
1217.00	5749.14
1218.00	21155.32
1219.00	41936.16
1220.00	59895.87
1221.00	65535.00
1222.00	65535.00
1223.00	65535.00
1224.00	65535.00
1225.00	65354.78
1226.00	56193.14
1227.00	40584.11
1228.00	21854.36
1229.00	10692.35
1230.00	5394.15
1231.00	3140.22
1232.00	2238.33
1233.00	1877.11
1234.00	1724.19
1235.00	1644.62
1236.00	2096.34
1237.00	3724.57
1238.00	6993.52
1239.00	11451.46
1240.00	15121.42
1241.00	16282.33
1242.00	14583.10
1243.00	11302.45
1244.00	7760.44
1245.00	4816.04
1246.00	2810.98
1247.00	1777.25
1248.00	1238.92
1249.00	977.56
1250.00	890.96
1251.00	939.34
1252.00	1063.38
1253.00	1180.41
1254.00	1266.23
1255.00	1267.01
1256.00	1229.56
1257.00	1161.69
1258.00	1059.48
1259.00	975.22
1260.00	932.31
1261.00	911.25
1262.00	919.05
1263.00	875.36
1264.00	874.58
1265.00	812.95
1266.00	806.70
1267.00	784.86
1268.00	788.76
1269.00	766.14
1270.00	757.55
1271.00	756.77
1272.00	763.79
1273.00	795.00
1274.00	868.34
1275.00	1265.45
1276.00	3038.80
1277.00	7226.79
1278.00	14622.89
1279.00	22724.26
1280.00	28420.34
1281.00	28503.82
1282.00	24371.22
1283.00	17838.00
1284.00	11648.85
1285.00	6722.02
1286.00	3666.06
1287.00	2133.79
1288.00	1365.31
1289.00	1025.93
1290.00	883.94
1291.00	815.29
1292.00	842.59
1293.00	858.98
1294.00	913.59
1295.00	1076.65
1296.00	1713.27
1297.00	2977.16
1298.00	4742.71
1299.00	6235.97
1300.00	6865.57
1301.00	6306.96
1302.00	5124.21
1303.00	3660.60
1304.00	2487.99
1305.00	1609.51
1306.00	1149.98
1307.00	918.27
1308.00	840.25
1309.00	805.92
1310.00	765.36
1311.00	715.42
1312.00	667.05
1313.00	625.70
1314.00	610.10
1315.00	606.20
1316.00	614.00
1317.00	588.25
1318.00	596.06
1319.00	572.65
1320.00	565.63
1321.00	528.96
1322.00	540.66
1323.00	548.47
1324.00	565.63
1325.00	600.74
1326.00	621.02
1327.00	652.23
1328.00	628.82
1329.00	663.15
1330.00	1013.45
1331.00	1949.67
1332.00	3577.90
1333.00	5492.46
1334.00	6976.36
1335.00	7309.49
1336.00	6626.84
1337.00	5213.93
1338.00	3755.78
1339.00	2410.75
1340.00	1523.69
1341.00	1032.96
1342.00	789.54
1343.00	667.83
1344.00	611.66
1345.00	634.29
1346.00	633.50
1347.00	640.53
1348.00	614.78
1349.00	632.72
1350.00	609.32
1351.00	628.82
1352.00	649.89
1353.00	693.58
1354.00	719.32
1355.00	743.51
1356.00	803.58
