SpectraSuite Data File
++++++++++++++++++++++++++++++++++++
Date: Thu Nov 16 13:55:19 EST 2017
User: cheriyan
Dark Spectrum Present: No
Reference Spectrum Present: No
Number of Sampled Component Spectra: 1
Spectrometers: USB2+H05261
Integration Time (usec): 100000 (USB2+H05261)
Spectra Averaged: 1 (USB2+H05261)
Boxcar Smoothing: 1 (USB2+H05261)
Correct for Electrical Dark: No (USB2+H05261)
Strobe/Lamp Enabled: No (USB2+H05261)
Correct for Detector Non-linearity: No (USB2+H05261)
Correct for Stray Light: No (USB2+H05261)
Number of Pixels in Processed Spectrum: 2048
>>>>>Begin Processed Spectral Data<<<<<
0.00	346.40
1.00	346.40
2.00	326.89
3.00	283.20
4.00	238.73
5.00	227.81
6.00	234.05
7.00	242.64
8.00	227.03
9.00	220.01
10.00	237.95
11.00	244.20
12.00	262.14
13.00	233.27
14.00	248.10
15.00	235.61
16.00	273.06
17.00	269.16
18.00	274.62
19.00	258.24
20.00	271.50
21.00	283.98
22.00	309.73
23.00	322.21
24.00	332.36
25.00	334.70
26.00	357.32
27.00	392.43
28.00	409.59
29.00	386.19
30.00	376.83
31.00	358.10
32.00	378.39
33.00	355.76
34.00	362.78
35.00	372.93
36.00	440.02
37.00	457.18
38.00	460.31
39.00	422.08
40.00	435.34
41.00	415.84
42.00	403.35
43.00	381.51
44.00	395.55
45.00	393.99
46.00	387.75
47.00	396.33
48.00	409.59
49.00	418.18
50.00	398.67
51.00	411.93
52.00	397.89
53.00	401.01
54.00	375.27
55.00	394.77
56.00	431.44
57.00	441.58
58.00	444.70
59.00	419.74
60.00	402.57
61.00	405.69
62.00	392.43
63.00	435.34
64.00	429.88
65.00	452.50
66.00	458.75
67.00	446.26
68.00	418.18
69.00	390.87
70.00	420.52
71.00	429.10
72.00	418.96
73.00	408.03
74.00	411.15
75.00	408.81
76.00	383.07
77.00	360.44
78.00	386.97
79.00	397.89
80.00	425.98
81.00	412.71
82.00	414.27
83.00	419.74
84.00	413.49
85.00	390.87
86.00	379.17
87.00	400.23
88.00	415.06
89.00	436.90
90.00	414.27
91.00	418.18
92.00	379.95
93.00	343.28
94.00	357.32
95.00	385.41
96.00	427.54
97.00	412.71
98.00	383.85
99.00	376.83
100.00	379.17
101.00	386.97
102.00	399.45
103.00	409.59
104.00	413.49
105.00	410.37
106.00	401.01
107.00	394.77
108.00	398.67
109.00	424.42
110.00	457.96
111.00	464.21
112.00	450.16
113.00	427.54
114.00	410.37
115.00	401.79
116.00	424.42
117.00	425.20
118.00	432.22
119.00	423.64
120.00	418.96
121.00	419.74
122.00	428.32
123.00	449.38
124.00	458.75
125.00	431.44
126.00	413.49
127.00	397.11
128.00	397.11
129.00	420.52
130.00	421.30
131.00	432.22
132.00	410.37
133.00	429.10
134.00	423.64
135.00	443.92
136.00	422.08
137.00	421.30
138.00	392.43
139.00	399.45
140.00	372.15
141.00	390.09
142.00	396.33
143.00	429.10
144.00	461.87
145.00	505.56
146.00	570.31
147.00	554.71
148.00	514.92
149.00	461.09
150.00	449.38
151.00	445.48
152.00	431.44
153.00	414.27
154.00	411.93
155.00	411.93
156.00	419.74
157.00	425.20
158.00	440.80
159.00	428.32
160.00	421.30
161.00	409.59
162.00	415.84
163.00	396.33
164.00	384.63
165.00	418.18
166.00	450.94
167.00	452.50
168.00	421.30
169.00	398.67
170.00	397.89
171.00	394.77
172.00	418.18
173.00	403.35
174.00	403.35
175.00	376.83
176.00	411.15
177.00	421.30
178.00	457.96
179.00	455.62
180.00	475.13
181.00	463.43
182.00	465.77
183.00	466.55
184.00	438.46
185.00	413.49
186.00	389.31
187.00	401.01
188.00	404.91
189.00	405.69
190.00	381.51
191.00	399.45
192.00	414.27
193.00	460.31
194.00	464.21
195.00	488.39
196.00	521.94
197.00	549.25
198.00	549.25
199.00	520.38
200.00	485.27
201.00	457.96
202.00	424.42
203.00	404.91
204.00	402.57
205.00	427.54
206.00	440.02
207.00	441.58
208.00	401.79
209.00	417.40
210.00	417.40
211.00	436.12
212.00	421.30
213.00	397.11
214.00	385.41
215.00	381.51
216.00	417.40
217.00	440.80
218.00	454.84
219.00	422.08
220.00	416.62
221.00	397.89
222.00	408.03
223.00	432.22
224.00	438.46
225.00	438.46
226.00	419.74
227.00	425.98
228.00	422.86
229.00	404.13
230.00	394.77
231.00	411.93
232.00	397.11
233.00	393.99
234.00	390.87
235.00	397.11
236.00	412.71
237.00	419.74
238.00	431.44
239.00	400.23
240.00	377.61
241.00	393.99
242.00	420.52
243.00	408.03
244.00	386.97
245.00	386.19
246.00	410.37
247.00	443.14
248.00	454.06
249.00	440.80
250.00	414.27
251.00	391.65
252.00	407.25
253.00	432.22
254.00	449.38
255.00	454.06
256.00	448.60
257.00	450.16
258.00	448.60
259.00	458.74
260.00	477.47
261.00	450.16
262.00	433.78
263.00	404.13
264.00	425.20
265.00	426.76
266.00	454.06
267.00	495.41
268.00	532.08
269.00	571.09
270.00	569.53
271.00	588.25
272.00	610.10
273.00	649.89
274.00	651.45
275.00	623.36
276.00	602.30
277.00	594.50
278.00	551.59
279.00	516.48
280.00	499.31
281.00	492.29
282.00	444.70
283.00	393.99
284.00	376.83
285.00	398.67
286.00	408.03
287.00	414.27
288.00	383.85
289.00	384.63
290.00	406.47
291.00	411.93
292.00	397.11
293.00	370.58
294.00	403.35
295.00	412.71
296.00	429.10
297.00	408.03
298.00	411.15
299.00	398.67
300.00	417.40
301.00	432.22
302.00	443.92
303.00	440.80
304.00	422.08
305.00	428.32
306.00	452.50
307.00	519.60
308.00	598.40
309.00	646.77
310.00	637.41
311.00	576.55
312.00	516.48
313.00	447.04
314.00	413.49
315.00	394.77
316.00	422.86
317.00	441.58
318.00	444.70
319.00	438.46
320.00	433.00
321.00	429.88
322.00	427.54
323.00	398.67
324.00	389.31
325.00	398.67
326.00	408.81
327.00	418.18
328.00	425.98
329.00	443.14
330.00	455.62
331.00	438.46
332.00	429.10
333.00	401.79
334.00	400.23
335.00	411.15
336.00	422.86
337.00	429.10
338.00	397.89
339.00	427.54
340.00	450.94
341.00	484.49
342.00	454.84
343.00	427.54
344.00	416.62
345.00	453.28
346.00	525.06
347.00	607.76
348.00	719.32
349.00	764.57
350.00	764.57
351.00	658.47
352.00	582.79
353.00	550.03
354.00	552.37
355.00	539.10
356.00	505.56
357.00	484.49
358.00	448.60
359.00	434.56
360.00	409.59
361.00	418.18
362.00	412.71
363.00	435.34
364.00	406.47
365.00	393.21
366.00	376.05
367.00	397.11
368.00	409.59
369.00	422.08
370.00	436.12
371.00	453.28
372.00	443.92
373.00	450.94
374.00	436.12
375.00	417.40
376.00	397.11
377.00	378.39
378.00	362.78
379.00	369.02
380.00	379.17
381.00	417.40
382.00	418.96
383.00	416.62
384.00	420.52
385.00	424.42
386.00	435.34
387.00	401.01
388.00	387.75
389.00	407.25
390.00	444.70
391.00	444.70
392.00	420.52
393.00	404.91
394.00	419.74
395.00	457.96
396.00	477.47
397.00	452.50
398.00	423.64
399.00	412.71
400.00	450.16
401.00	450.16
402.00	439.24
403.00	404.91
404.00	411.15
405.00	407.25
406.00	410.37
407.00	405.69
408.00	411.15
409.00	428.32
410.00	425.20
411.00	433.00
412.00	425.20
413.00	434.56
414.00	408.03
415.00	411.15
416.00	414.27
417.00	429.88
418.00	389.31
419.00	369.80
420.00	382.29
421.00	430.66
422.00	465.77
423.00	450.16
424.00	415.84
425.00	395.55
426.00	383.85
427.00	423.64
428.00	422.86
429.00	438.46
430.00	442.36
431.00	433.00
432.00	433.00
433.00	424.42
434.00	425.98
435.00	444.70
436.00	427.54
437.00	447.82
438.00	412.71
439.00	411.15
440.00	384.63
441.00	430.66
442.00	471.23
443.00	485.27
444.00	462.65
445.00	416.62
446.00	405.69
447.00	410.37
448.00	431.44
449.00	420.52
450.00	424.42
451.00	418.96
452.00	441.58
453.00	429.10
454.00	430.66
455.00	426.76
456.00	436.90
457.00	437.68
458.00	436.90
459.00	441.58
460.00	443.92
461.00	450.94
462.00	453.28
463.00	458.75
464.00	454.84
465.00	435.34
466.00	422.86
467.00	434.56
468.00	430.66
469.00	435.34
470.00	422.86
471.00	432.22
472.00	425.20
473.00	422.08
474.00	418.96
475.00	417.40
476.00	418.96
477.00	422.08
478.00	423.64
479.00	426.76
480.00	425.98
481.00	420.52
482.00	404.13
483.00	410.37
484.00	429.10
485.00	429.10
486.00	440.80
487.00	471.23
488.00	490.73
489.00	490.73
490.00	457.18
491.00	452.50
492.00	466.55
493.00	458.74
494.00	475.13
495.00	449.38
496.00	427.54
497.00	415.84
498.00	424.42
499.00	459.53
500.00	450.94
501.00	428.32
502.00	418.18
503.00	418.18
504.00	428.32
505.00	440.02
506.00	442.36
507.00	452.50
508.00	443.92
509.00	432.22
510.00	424.42
511.00	419.74
512.00	426.76
513.00	425.20
514.00	411.93
515.00	396.33
516.00	396.33
517.00	422.08
518.00	435.34
519.00	455.62
520.00	432.22
521.00	404.91
522.00	378.39
523.00	371.36
524.00	396.33
525.00	408.03
526.00	428.32
527.00	429.10
528.00	422.08
529.00	397.11
530.00	401.79
531.00	401.01
532.00	426.76
533.00	431.44
534.00	447.04
535.00	453.28
536.00	451.72
537.00	446.26
538.00	425.20
539.00	426.76
540.00	422.08
541.00	413.49
542.00	415.84
543.00	413.49
544.00	429.88
545.00	415.06
546.00	399.45
547.00	412.71
548.00	427.54
549.00	450.94
550.00	450.94
551.00	451.72
552.00	441.58
553.00	440.02
554.00	442.36
555.00	455.62
556.00	461.87
557.00	457.18
558.00	437.68
559.00	397.11
560.00	388.53
561.00	399.45
562.00	411.93
563.00	404.13
564.00	403.35
565.00	406.47
566.00	397.89
567.00	386.97
568.00	378.39
569.00	388.53
570.00	397.89
571.00	418.96
572.00	425.98
573.00	433.00
574.00	450.94
575.00	454.84
576.00	403.35
577.00	401.79
578.00	404.91
579.00	447.82
580.00	421.30
581.00	403.35
582.00	396.33
583.00	406.47
584.00	406.47
585.00	438.46
586.00	428.32
587.00	426.76
588.00	388.53
589.00	399.45
590.00	400.23
591.00	465.77
592.00	449.38
593.00	450.16
594.00	411.15
595.00	423.64
596.00	427.54
597.00	422.08
598.00	404.13
599.00	427.54
600.00	421.30
601.00	443.14
602.00	430.66
603.00	428.32
604.00	416.62
605.00	440.02
606.00	440.80
607.00	462.65
608.00	451.72
609.00	457.96
610.00	421.30
611.00	388.53
612.00	372.93
613.00	406.47
614.00	426.76
615.00	450.94
616.00	447.04
617.00	435.34
618.00	393.99
619.00	396.33
620.00	418.96
621.00	429.88
622.00	431.44
623.00	460.31
624.00	494.63
625.00	497.75
626.00	446.26
627.00	419.74
628.00	409.59
629.00	433.00
630.00	425.20
631.00	415.06
632.00	408.81
633.00	422.86
634.00	434.56
635.00	410.37
636.00	406.47
637.00	391.65
638.00	393.21
639.00	427.54
640.00	454.06
641.00	454.06
642.00	427.54
643.00	373.71
644.00	368.24
645.00	378.39
646.00	405.69
647.00	430.66
648.00	412.71
649.00	413.49
650.00	418.96
651.00	427.54
652.00	434.56
653.00	426.76
654.00	470.45
655.00	499.31
656.00	518.82
657.00	466.55
658.00	445.48
659.00	424.42
660.00	444.70
661.00	433.00
662.00	447.04
663.00	443.14
664.00	457.18
665.00	459.53
666.00	448.60
667.00	443.92
668.00	438.46
669.00	433.78
670.00	429.10
671.00	430.66
672.00	433.00
673.00	423.64
674.00	414.27
675.00	406.47
676.00	408.03
677.00	406.47
678.00	425.20
679.00	418.18
680.00	447.82
681.00	442.36
682.00	466.55
683.00	432.22
684.00	425.20
685.00	432.22
686.00	442.36
687.00	414.27
688.00	433.00
689.00	426.76
690.00	500.87
691.00	461.87
692.00	425.20
693.00	380.73
694.00	369.02
695.00	394.77
696.00	404.91
697.00	444.70
698.00	465.77
699.00	450.16
700.00	432.22
701.00	414.27
702.00	445.48
703.00	447.82
704.00	454.06
705.00	424.42
706.00	421.30
707.00	427.54
708.00	441.58
709.00	424.42
710.00	404.13
711.00	387.75
712.00	422.86
713.00	433.00
714.00	436.12
715.00	425.98
716.00	450.94
717.00	448.60
718.00	495.41
719.00	479.03
720.00	483.71
721.00	394.77
722.00	399.45
723.00	415.06
724.00	447.04
725.00	439.24
726.00	421.30
727.00	441.58
728.00	433.00
729.00	450.16
730.00	445.48
731.00	445.48
732.00	444.70
733.00	454.06
734.00	487.61
735.00	497.75
736.00	505.56
737.00	481.37
738.00	496.97
739.00	477.47
740.00	461.87
741.00	456.40
742.00	439.24
743.00	495.41
744.00	443.92
745.00	450.94
746.00	420.52
747.00	449.38
748.00	447.82
749.00	441.58
750.00	440.80
751.00	427.54
752.00	429.88
753.00	404.13
754.00	429.10
755.00	434.56
756.00	464.21
757.00	470.45
758.00	464.99
759.00	470.45
760.00	487.61
761.00	505.56
762.00	491.51
763.00	475.13
764.00	487.61
765.00	497.75
766.00	472.01
767.00	444.70
768.00	425.98
769.00	431.44
770.00	408.03
771.00	404.91
772.00	401.01
773.00	440.02
774.00	444.70
775.00	442.36
776.00	400.23
777.00	407.25
778.00	430.66
779.00	470.45
780.00	501.65
781.00	525.06
782.00	532.86
783.00	596.84
784.00	576.55
785.00	554.71
786.00	477.47
787.00	456.40
788.00	453.28
789.00	418.96
790.00	407.25
791.00	400.23
792.00	404.91
793.00	397.89
794.00	381.51
795.00	384.63
796.00	421.30
797.00	454.06
798.00	475.91
799.00	471.23
800.00	456.40
801.00	442.36
802.00	456.40
803.00	450.94
804.00	450.16
805.00	435.34
806.00	435.34
807.00	440.02
808.00	447.04
809.00	464.99
810.00	466.55
811.00	473.57
812.00	489.95
813.00	461.09
814.00	447.82
815.00	427.54
816.00	462.65
817.00	453.28
818.00	452.50
819.00	420.52
820.00	427.54
821.00	456.40
822.00	507.12
823.00	544.56
824.00	534.42
825.00	524.28
826.00	477.47
827.00	468.89
828.00	480.59
829.00	481.37
830.00	492.29
831.00	461.09
832.00	492.29
833.00	480.59
834.00	511.02
835.00	504.00
836.00	489.95
837.00	476.69
838.00	436.90
839.00	439.24
840.00	432.22
841.00	437.68
842.00	462.65
843.00	448.60
844.00	473.57
845.00	424.42
846.00	435.34
847.00	425.98
848.00	467.33
849.00	481.37
850.00	485.27
851.00	475.91
852.00	441.58
853.00	425.20
854.00	414.27
855.00	425.20
856.00	434.56
857.00	437.68
858.00	450.16
859.00	438.46
860.00	431.44
861.00	411.93
862.00	438.46
863.00	422.08
864.00	445.48
865.00	413.49
866.00	447.04
867.00	433.78
868.00	436.90
869.00	421.30
870.00	413.49
871.00	401.79
872.00	395.55
873.00	387.75
874.00	408.81
875.00	402.57
876.00	409.59
877.00	404.91
878.00	411.15
879.00	411.93
880.00	415.06
881.00	436.12
882.00	450.94
883.00	455.62
884.00	422.08
885.00	406.47
886.00	438.46
887.00	469.67
888.00	500.87
889.00	495.41
890.00	500.09
891.00	480.59
892.00	458.74
893.00	462.65
894.00	482.93
895.00	464.21
896.00	457.96
897.00	433.78
898.00	447.04
899.00	440.02
900.00	460.31
901.00	484.49
902.00	528.18
903.00	567.97
904.00	646.77
905.00	730.25
906.00	812.17
907.00	787.20
908.00	771.60
909.00	1023.59
910.00	1069.62
911.00	1107.07
912.00	854.30
913.00	866.00
914.00	810.61
915.00	756.77
916.00	638.97
917.00	582.01
918.00	472.79
919.00	478.25
920.00	470.45
921.00	511.80
922.00	510.24
923.00	511.80
924.00	512.58
925.00	494.63
926.00	483.71
927.00	453.28
928.00	450.94
929.00	422.08
930.00	424.42
931.00	434.56
932.00	436.90
933.00	446.26
934.00	439.24
935.00	464.21
936.00	488.39
937.00	500.87
938.00	481.37
939.00	450.16
940.00	457.96
941.00	467.33
942.00	509.46
943.00	621.80
944.00	1038.42
945.00	1852.14
946.00	2881.20
947.00	3650.46
948.00	3739.40
949.00	3255.69
950.00	2399.83
951.00	1620.43
952.00	1033.74
953.00	716.98
954.00	556.27
955.00	478.25
956.00	444.70
957.00	481.37
958.00	479.81
959.00	489.17
960.00	440.80
961.00	425.20
962.00	428.32
963.00	460.31
964.00	463.43
965.00	458.75
966.00	445.48
967.00	441.58
968.00	462.65
969.00	450.16
970.00	440.02
971.00	439.24
972.00	447.04
973.00	480.59
974.00	447.82
975.00	449.38
976.00	411.93
977.00	426.76
978.00	429.10
979.00	449.38
980.00	443.14
981.00	449.38
982.00	449.38
983.00	466.55
984.00	457.18
985.00	461.09
986.00	461.87
987.00	441.58
988.00	424.42
989.00	438.46
990.00	437.68
991.00	437.68
992.00	411.93
993.00	428.32
994.00	423.64
995.00	425.20
996.00	446.26
997.00	482.15
998.00	495.41
999.00	496.97
1000.00	475.13
1001.00	459.53
1002.00	451.72
1003.00	451.72
1004.00	448.60
1005.00	435.34
1006.00	422.86
1007.00	440.80
1008.00	443.92
1009.00	461.09
1010.00	458.74
1011.00	434.56
1012.00	450.94
1013.00	431.44
1014.00	466.55
1015.00	443.92
1016.00	454.06
1017.00	433.00
1018.00	429.10
1019.00	415.06
1020.00	433.78
1021.00	447.82
1022.00	462.65
1023.00	454.84
1024.00	445.48
1025.00	422.86
1026.00	424.42
1027.00	422.86
1028.00	440.80
1029.00	437.68
1030.00	463.43
1031.00	467.33
1032.00	495.41
1033.00	470.45
1034.00	454.84
1035.00	422.08
1036.00	436.90
1037.00	457.18
1038.00	457.18
1039.00	437.68
1040.00	446.26
1041.00	501.65
1042.00	532.08
1043.00	545.34
1044.00	502.44
1045.00	528.18
1046.00	524.28
1047.00	501.65
1048.00	468.11
1049.00	454.06
1050.00	472.01
1051.00	470.45
1052.00	464.21
1053.00	450.16
1054.00	433.00
1055.00	419.74
1056.00	433.78
1057.00	437.68
1058.00	433.78
1059.00	412.71
1060.00	409.59
1061.00	423.64
1062.00	435.34
1063.00	454.84
1064.00	475.13
1065.00	493.85
1066.00	459.53
1067.00	452.50
1068.00	429.10
1069.00	440.80
1070.00	419.74
1071.00	449.38
1072.00	443.14
1073.00	448.60
1074.00	424.42
1075.00	466.55
1076.00	461.09
1077.00	469.67
1078.00	457.18
1079.00	479.81
1080.00	478.25
1081.00	446.26
1082.00	435.34
1083.00	437.68
1084.00	466.55
1085.00	461.87
1086.00	487.61
1087.00	476.69
1088.00	442.36
1089.00	418.96
1090.00	395.55
1091.00	436.12
1092.00	444.70
1093.00	456.40
1094.00	440.02
1095.00	418.96
1096.00	393.21
1097.00	411.93
1098.00	438.46
1099.00	509.46
1100.00	531.30
1101.00	535.20
1102.00	524.28
1103.00	530.52
1104.00	540.66
1105.00	532.86
1106.00	510.24
1107.00	482.15
1108.00	478.25
1109.00	486.83
1110.00	496.97
1111.00	468.11
1112.00	414.27
1113.00	392.43
1114.00	412.71
1115.00	433.78
1116.00	477.47
1117.00	479.81
1118.00	493.07
1119.00	449.38
1120.00	469.67
1121.00	495.41
1122.00	541.44
1123.00	547.69
1124.00	545.34
1125.00	502.43
1126.00	478.25
1127.00	468.11
1128.00	461.87
1129.00	445.48
1130.00	431.44
1131.00	419.74
1132.00	440.02
1133.00	446.26
1134.00	497.75
1135.00	479.81
1136.00	481.37
1137.00	498.53
1138.00	538.32
1139.00	567.97
1140.00	549.25
1141.00	535.98
1142.00	507.12
1143.00	514.14
1144.00	509.46
1145.00	516.48
1146.00	486.05
1147.00	487.61
1148.00	492.29
1149.00	514.14
1150.00	508.68
1151.00	482.93
1152.00	462.65
1153.00	479.03
1154.00	544.56
1155.00	616.34
1156.00	686.56
1157.00	697.48
1158.00	702.16
1159.00	675.63
1160.00	631.16
1161.00	596.84
1162.00	537.54
1163.00	599.96
1164.00	744.29
1165.00	1034.52
1166.00	1403.54
1167.00	1690.65
1168.00	1758.52
1169.00	1554.12
1170.00	1255.31
1171.00	985.37
1172.00	798.12
1173.00	673.29
1174.00	624.14
1175.00	614.78
1176.00	613.22
1177.00	608.54
1178.00	585.13
1179.00	591.38
1180.00	605.42
1181.00	629.60
1182.00	632.72
1183.00	624.92
1184.00	645.21
1185.00	649.89
1186.00	662.37
1187.00	660.81
1188.00	683.44
1189.00	725.57
1190.00	786.42
1191.00	854.30
1192.00	867.56
1193.00	875.36
1194.00	841.81
1195.00	834.79
1196.00	799.68
1197.00	826.21
1198.00	857.42
1199.00	1004.87
1200.00	1174.17
1201.00	1388.72
1202.00	1493.26
1203.00	1515.11
1204.00	1393.40
1205.00	1267.79
1206.00	1144.52
1207.00	1116.44
1208.00	1105.51
1209.00	1146.86
1210.00	1181.97
1211.00	1264.67
1212.00	1345.03
1213.00	1497.16
1214.00	1679.72
1215.00	1950.45
1216.00	2455.22
1217.00	5675.02
1218.00	21211.50
1219.00	42004.03
1220.00	59987.15
1221.00	65535.00
1222.00	65535.00
1223.00	65535.00
1224.00	65535.00
1225.00	65322.01
1226.00	56173.64
1227.00	40538.08
1228.00	21908.97
1229.00	10707.17
1230.00	5395.72
1231.00	3104.33
1232.00	2221.17
1233.00	1885.69
1234.00	1661.00
1235.00	1621.21
1236.00	2052.65
1237.00	3636.41
1238.00	6923.30
1239.00	11418.69
1240.00	15183.84
1241.00	16334.60
1242.00	14576.08
1243.00	11218.19
1244.00	7644.97
1245.00	4751.29
1246.00	2789.14
1247.00	1732.78
1248.00	1212.40
1249.00	951.82
1250.00	882.38
1251.00	913.59
1252.00	1078.99
1253.00	1169.49
1254.00	1242.82
1255.00	1217.86
1256.00	1201.48
1257.00	1131.26
1258.00	1081.33
1259.00	1008.77
1260.00	974.44
1261.00	941.68
1262.00	949.48
1263.00	886.28
1264.00	842.59
1265.00	801.24
1266.00	781.74
1267.00	770.04
1268.00	725.57
1269.00	738.83
1270.00	740.39
1271.00	760.67
1272.00	789.54
1273.00	804.36
1274.00	859.76
1275.00	1224.88
1276.00	2987.30
1277.00	7268.92
1278.00	14748.50
1279.00	23114.35
1280.00	28637.23
1281.00	28688.73
1282.00	24412.57
1283.00	17905.10
1284.00	11723.74
1285.00	6689.25
1286.00	3724.57
1287.00	2124.43
1288.00	1320.06
1289.00	965.86
1290.00	839.47
1291.00	855.08
1292.00	877.70
1293.00	909.69
1294.00	932.31
1295.00	1110.19
1296.00	1724.97
1297.00	2979.50
1298.00	4695.11
1299.00	6224.26
1300.00	6788.33
1301.00	6265.61
1302.00	5039.95
1303.00	3659.82
1304.00	2472.39
1305.00	1606.39
1306.00	1149.98
1307.00	950.26
1308.00	895.64
1309.00	853.52
1310.00	798.12
1311.00	733.37
1312.00	681.88
1313.00	673.29
1314.00	642.87
1315.00	600.74
1316.00	573.43
1317.00	567.97
1318.00	592.94
1319.00	589.03
1320.00	581.23
1321.00	558.61
1322.00	564.07
1323.00	582.01
1324.00	600.74
1325.00	603.08
1326.00	603.86
1327.00	607.76
1328.00	610.10
1329.00	628.82
1330.00	948.70
1331.00	1853.70
1332.00	3508.46
1333.00	5414.44
1334.00	6943.59
1335.00	7339.92
1336.00	6678.33
1337.00	5284.93
1338.00	3735.50
1339.00	2396.71
1340.00	1461.27
1341.00	970.54
1342.00	788.76
1343.00	689.68
1344.00	671.73
1345.00	637.41
1346.00	626.48
1347.00	624.92
1348.00	621.80
1349.00	616.34
1350.00	619.46
1351.00	667.05
1352.00	694.36
1353.00	712.30
1354.00	708.40
1355.00	731.81
1356.00	759.89
