SpectraSuite Data File
++++++++++++++++++++++++++++++++++++
Date: Thu Nov 16 13:55:15 EST 2017
User: cheriyan
Dark Spectrum Present: No
Reference Spectrum Present: No
Number of Sampled Component Spectra: 1
Spectrometers: USB2+H05261
Integration Time (usec): 100000 (USB2+H05261)
Spectra Averaged: 1 (USB2+H05261)
Boxcar Smoothing: 1 (USB2+H05261)
Correct for Electrical Dark: No (USB2+H05261)
Strobe/Lamp Enabled: No (USB2+H05261)
Correct for Detector Non-linearity: No (USB2+H05261)
Correct for Stray Light: No (USB2+H05261)
Number of Pixels in Processed Spectrum: 2048
>>>>>Begin Processed Spectral Data<<<<<
0.00	332.36
1.00	332.36
2.00	295.69
3.00	264.48
4.00	209.09
5.00	209.87
6.00	225.47
7.00	235.61
8.00	237.17
9.00	209.87
10.00	217.67
11.00	217.67
12.00	241.86
13.00	237.95
14.00	248.10
15.00	248.10
16.00	262.14
17.00	253.56
18.00	239.51
19.00	252.78
20.00	254.34
21.00	277.74
22.00	308.95
23.00	350.30
24.00	351.86
25.00	340.94
26.00	325.33
27.00	352.64
28.00	349.52
29.00	373.71
30.00	379.17
31.00	376.83
32.00	412.71
33.00	404.13
34.00	404.13
35.00	378.39
36.00	366.68
37.00	415.84
38.00	425.98
39.00	468.89
40.00	454.06
41.00	447.04
42.00	424.42
43.00	409.59
44.00	401.79
45.00	421.30
46.00	423.64
47.00	422.08
48.00	419.74
49.00	430.66
50.00	457.96
51.00	450.16
52.00	451.72
53.00	425.98
54.00	436.90
55.00	419.74
56.00	412.71
57.00	404.91
58.00	417.40
59.00	444.70
60.00	440.02
61.00	440.02
62.00	422.86
63.00	422.08
64.00	425.98
65.00	452.50
66.00	445.48
67.00	433.00
68.00	397.89
69.00	363.56
70.00	390.09
71.00	403.35
72.00	429.88
73.00	401.01
74.00	362.78
75.00	357.32
76.00	355.76
77.00	366.68
78.00	390.09
79.00	419.74
80.00	445.48
81.00	415.84
82.00	392.43
83.00	372.15
84.00	370.58
85.00	368.24
86.00	366.68
87.00	386.97
88.00	404.91
89.00	419.74
90.00	432.22
91.00	423.64
92.00	438.46
93.00	422.86
94.00	446.26
95.00	419.74
96.00	431.44
97.00	416.62
98.00	455.62
99.00	443.14
100.00	427.54
101.00	411.93
102.00	401.01
103.00	416.62
104.00	393.21
105.00	400.23
106.00	395.55
107.00	395.55
108.00	398.67
109.00	377.61
110.00	374.49
111.00	367.46
112.00	386.19
113.00	408.81
114.00	420.52
115.00	414.27
116.00	424.42
117.00	415.06
118.00	402.57
119.00	364.34
120.00	376.05
121.00	365.12
122.00	411.93
123.00	438.46
124.00	472.01
125.00	438.46
126.00	387.75
127.00	371.36
128.00	384.63
129.00	427.54
130.00	433.78
131.00	418.18
132.00	405.69
133.00	410.37
134.00	408.81
135.00	404.91
136.00	381.51
137.00	390.09
138.00	393.99
139.00	433.00
140.00	443.92
141.00	427.54
142.00	428.32
143.00	440.02
144.00	457.96
145.00	457.18
146.00	482.15
147.00	502.43
148.00	507.90
149.00	475.13
150.00	487.61
151.00	461.87
152.00	469.67
153.00	439.24
154.00	470.45
155.00	454.84
156.00	464.99
157.00	408.81
158.00	407.25
159.00	401.79
160.00	431.44
161.00	425.98
162.00	413.49
163.00	384.63
164.00	366.68
165.00	361.22
166.00	386.19
167.00	417.40
168.00	415.84
169.00	427.54
170.00	415.84
171.00	439.24
172.00	415.84
173.00	412.71
174.00	393.21
175.00	411.93
176.00	418.96
177.00	417.40
178.00	409.59
179.00	422.08
180.00	428.32
181.00	429.88
182.00	408.03
183.00	412.71
184.00	419.74
185.00	433.00
186.00	419.74
187.00	416.62
188.00	406.47
189.00	401.79
190.00	408.03
191.00	427.54
192.00	448.60
193.00	457.18
194.00	458.75
195.00	483.71
196.00	521.94
197.00	528.18
198.00	512.58
199.00	452.50
200.00	431.44
201.00	423.64
202.00	429.88
203.00	422.08
204.00	405.69
205.00	417.40
206.00	421.30
207.00	412.71
208.00	408.81
209.00	389.31
210.00	422.08
211.00	401.01
212.00	412.71
213.00	401.79
214.00	418.96
215.00	418.18
216.00	418.18
217.00	425.20
218.00	457.18
219.00	440.02
220.00	411.15
221.00	404.13
222.00	408.03
223.00	409.59
224.00	398.67
225.00	415.06
226.00	416.62
227.00	427.54
228.00	433.00
229.00	454.84
230.00	443.92
231.00	439.24
232.00	429.10
233.00	432.22
234.00	438.46
235.00	422.08
236.00	408.03
237.00	371.36
238.00	394.77
239.00	390.09
240.00	416.62
241.00	394.77
242.00	420.52
243.00	412.71
244.00	455.62
245.00	450.94
246.00	442.36
247.00	418.18
248.00	419.74
249.00	422.08
250.00	372.15
251.00	373.71
252.00	351.86
253.00	411.15
254.00	436.12
255.00	496.97
256.00	500.09
257.00	505.56
258.00	489.95
259.00	450.16
260.00	425.98
261.00	386.97
262.00	410.37
263.00	404.13
264.00	443.14
265.00	479.03
266.00	495.41
267.00	542.22
268.00	564.85
269.00	565.63
270.00	543.78
271.00	574.21
272.00	615.56
273.00	642.87
274.00	610.10
275.00	602.30
276.00	585.91
277.00	574.99
278.00	565.63
279.00	530.52
280.00	497.75
281.00	442.36
282.00	415.84
283.00	382.29
284.00	379.17
285.00	388.53
286.00	420.52
287.00	425.20
288.00	436.12
289.00	402.57
290.00	400.23
291.00	383.07
292.00	417.40
293.00	403.35
294.00	408.03
295.00	401.01
296.00	415.84
297.00	414.27
298.00	405.69
299.00	415.84
300.00	440.80
301.00	441.58
302.00	427.54
303.00	421.30
304.00	418.96
305.00	461.87
306.00	500.09
307.00	584.35
308.00	630.38
309.00	635.07
310.00	636.63
311.00	622.58
312.00	603.08
313.00	553.93
314.00	504.00
315.00	477.47
316.00	460.31
317.00	438.46
318.00	398.67
319.00	372.93
320.00	372.15
321.00	389.31
322.00	397.11
323.00	386.97
324.00	381.51
325.00	392.43
326.00	419.74
327.00	438.46
328.00	447.82
329.00	431.44
330.00	436.90
331.00	418.96
332.00	418.96
333.00	378.39
334.00	395.55
335.00	405.69
336.00	425.20
337.00	420.52
338.00	428.32
339.00	433.00
340.00	397.11
341.00	383.85
342.00	387.75
343.00	422.86
344.00	462.65
345.00	510.24
346.00	572.65
347.00	644.43
348.00	712.30
349.00	746.63
350.00	713.08
351.00	649.11
352.00	576.55
353.00	543.78
354.00	520.38
355.00	513.36
356.00	468.89
357.00	455.62
358.00	411.15
359.00	418.96
360.00	436.12
361.00	455.62
362.00	450.94
363.00	439.24
364.00	443.14
365.00	445.48
366.00	413.49
367.00	414.27
368.00	442.36
369.00	456.40
370.00	483.71
371.00	464.99
372.00	455.62
373.00	445.48
374.00	461.09
375.00	456.40
376.00	444.70
377.00	400.23
378.00	398.67
379.00	388.53
380.00	408.03
381.00	399.45
382.00	403.35
383.00	392.43
384.00	418.96
385.00	429.10
386.00	431.44
387.00	433.78
388.00	434.56
389.00	445.48
390.00	422.08
391.00	412.71
392.00	415.06
393.00	434.56
394.00	425.20
395.00	428.32
396.00	464.21
397.00	479.81
398.00	476.69
399.00	451.72
400.00	445.48
401.00	427.54
402.00	415.84
403.00	410.37
404.00	431.44
405.00	429.10
406.00	424.42
407.00	405.69
408.00	419.74
409.00	426.76
410.00	415.84
411.00	397.89
412.00	395.55
413.00	405.69
414.00	418.96
415.00	425.20
416.00	431.44
417.00	429.10
418.00	395.55
419.00	369.80
420.00	363.56
421.00	387.75
422.00	415.84
423.00	426.76
424.00	435.34
425.00	441.58
426.00	436.90
427.00	417.40
428.00	426.76
429.00	411.15
430.00	437.68
431.00	400.23
432.00	393.99
433.00	394.77
434.00	402.57
435.00	419.74
436.00	390.09
437.00	401.79
438.00	416.62
439.00	443.92
440.00	446.26
441.00	449.38
442.00	476.69
443.00	485.27
444.00	471.23
445.00	440.80
446.00	447.82
447.00	454.84
448.00	464.99
449.00	451.72
450.00	458.75
451.00	448.60
452.00	461.09
453.00	440.80
454.00	408.03
455.00	403.35
456.00	422.08
457.00	420.52
458.00	401.01
459.00	397.11
460.00	409.59
461.00	415.06
462.00	401.01
463.00	430.66
464.00	440.02
465.00	471.23
466.00	435.34
467.00	430.66
468.00	391.65
469.00	400.23
470.00	371.36
471.00	360.44
472.00	387.75
473.00	413.49
474.00	432.22
475.00	393.21
476.00	397.89
477.00	434.56
478.00	475.91
479.00	475.13
480.00	439.24
481.00	435.34
482.00	431.44
483.00	440.02
484.00	440.80
485.00	446.26
486.00	429.10
487.00	416.62
488.00	411.15
489.00	439.24
490.00	441.58
491.00	444.70
492.00	436.90
493.00	447.82
494.00	435.34
495.00	422.86
496.00	428.32
497.00	436.12
498.00	444.70
499.00	433.00
500.00	443.14
501.00	433.00
502.00	412.71
503.00	411.93
504.00	434.56
505.00	452.50
506.00	483.71
507.00	467.33
508.00	466.55
509.00	448.60
510.00	460.31
511.00	455.62
512.00	445.48
513.00	419.74
514.00	437.68
515.00	433.78
516.00	443.14
517.00	421.30
518.00	420.52
519.00	430.66
520.00	422.08
521.00	422.86
522.00	419.74
523.00	440.02
524.00	451.72
525.00	444.70
526.00	444.70
527.00	407.25
528.00	430.66
529.00	433.78
530.00	442.36
531.00	433.00
532.00	430.66
533.00	475.91
534.00	463.43
535.00	456.40
536.00	446.26
537.00	456.40
538.00	469.67
539.00	459.53
540.00	444.70
541.00	417.40
542.00	399.45
543.00	419.74
544.00	435.34
545.00	436.90
546.00	432.22
547.00	446.26
548.00	455.62
549.00	440.02
550.00	429.10
551.00	443.14
552.00	457.18
553.00	458.75
554.00	444.70
555.00	450.94
556.00	437.68
557.00	442.36
558.00	417.40
559.00	461.87
560.00	466.55
561.00	473.57
562.00	430.66
563.00	410.37
564.00	384.63
565.00	391.65
566.00	384.63
567.00	410.37
568.00	383.85
569.00	397.89
570.00	387.75
571.00	402.57
572.00	404.13
573.00	440.02
574.00	436.12
575.00	411.93
576.00	403.35
577.00	411.15
578.00	418.18
579.00	411.15
580.00	408.03
581.00	413.49
582.00	405.69
583.00	415.06
584.00	458.75
585.00	472.79
586.00	465.77
587.00	419.74
588.00	410.37
589.00	403.35
590.00	401.79
591.00	383.85
592.00	396.33
593.00	394.77
594.00	394.77
595.00	396.33
596.00	428.32
597.00	427.54
598.00	434.56
599.00	420.52
600.00	451.72
601.00	461.09
602.00	456.40
603.00	434.56
604.00	412.71
605.00	407.25
606.00	415.84
607.00	415.06
608.00	426.76
609.00	412.71
610.00	425.98
611.00	412.71
612.00	428.32
613.00	425.20
614.00	436.12
615.00	438.46
616.00	444.70
617.00	447.04
618.00	436.90
619.00	437.68
620.00	443.14
621.00	434.56
622.00	435.34
623.00	452.50
624.00	477.47
625.00	461.87
626.00	453.28
627.00	453.28
628.00	452.50
629.00	461.87
630.00	455.62
631.00	461.87
632.00	417.40
633.00	412.71
634.00	392.43
635.00	411.15
636.00	430.66
637.00	456.40
638.00	445.48
639.00	461.09
640.00	456.40
641.00	430.66
642.00	412.71
643.00	440.02
644.00	479.81
645.00	485.27
646.00	445.48
647.00	450.16
648.00	420.52
649.00	433.78
650.00	454.84
651.00	462.65
652.00	470.45
653.00	423.64
654.00	457.96
655.00	444.70
656.00	471.23
657.00	409.59
658.00	411.93
659.00	385.41
660.00	414.27
661.00	418.96
662.00	447.82
663.00	429.10
664.00	396.33
665.00	386.19
666.00	390.09
667.00	420.52
668.00	418.96
669.00	447.04
670.00	450.94
671.00	451.72
672.00	440.02
673.00	457.18
674.00	454.06
675.00	473.57
676.00	448.60
677.00	440.80
678.00	395.55
679.00	391.65
680.00	422.08
681.00	450.94
682.00	448.60
683.00	429.10
684.00	414.27
685.00	413.49
686.00	415.06
687.00	436.12
688.00	434.56
689.00	439.24
690.00	431.44
691.00	443.14
692.00	441.58
693.00	439.24
694.00	426.76
695.00	411.93
696.00	420.52
697.00	437.68
698.00	442.36
699.00	433.78
700.00	441.58
701.00	471.23
702.00	483.71
703.00	463.43
704.00	456.40
705.00	444.70
706.00	454.06
707.00	438.46
708.00	435.34
709.00	433.78
710.00	429.10
711.00	432.22
712.00	427.54
713.00	433.00
714.00	423.64
715.00	440.80
716.00	447.04
717.00	461.09
718.00	498.53
719.00	477.47
720.00	477.47
721.00	422.86
722.00	423.64
723.00	404.91
724.00	398.67
725.00	406.47
726.00	416.62
727.00	404.91
728.00	413.49
729.00	432.22
730.00	434.56
731.00	419.74
732.00	401.79
733.00	417.40
734.00	457.18
735.00	507.90
736.00	546.12
737.00	528.18
738.00	496.19
739.00	471.23
740.00	456.40
741.00	464.21
742.00	443.14
743.00	449.38
744.00	443.14
745.00	430.66
746.00	441.58
747.00	422.86
748.00	439.24
749.00	414.27
750.00	406.47
751.00	403.35
752.00	406.47
753.00	434.56
754.00	450.94
755.00	458.74
756.00	461.87
757.00	452.50
758.00	466.55
759.00	467.33
760.00	496.19
761.00	476.69
762.00	472.01
763.00	450.16
764.00	484.49
765.00	493.07
766.00	458.75
767.00	420.52
768.00	402.57
769.00	437.68
770.00	446.26
771.00	452.50
772.00	422.08
773.00	444.70
774.00	433.00
775.00	459.53
776.00	440.02
777.00	454.06
778.00	470.45
779.00	500.87
780.00	518.82
781.00	528.18
782.00	542.22
783.00	589.03
784.00	585.13
785.00	550.81
786.00	485.27
787.00	469.67
788.00	458.75
789.00	443.92
790.00	431.44
791.00	406.47
792.00	408.81
793.00	399.45
794.00	432.22
795.00	440.80
796.00	456.40
797.00	475.13
798.00	489.95
799.00	504.78
800.00	482.93
801.00	485.27
802.00	504.00
803.00	513.36
804.00	501.65
805.00	473.57
806.00	472.01
807.00	454.06
808.00	462.65
809.00	484.49
810.00	487.61
811.00	470.45
812.00	437.68
813.00	424.42
814.00	428.32
815.00	419.74
816.00	411.93
817.00	387.75
818.00	378.39
819.00	397.11
820.00	411.15
821.00	458.75
822.00	494.63
823.00	532.86
824.00	510.24
825.00	512.58
826.00	479.81
827.00	475.13
828.00	429.88
829.00	436.90
830.00	450.94
831.00	450.94
832.00	448.60
833.00	454.06
834.00	479.81
835.00	498.53
836.00	479.03
837.00	479.03
838.00	456.40
839.00	458.74
840.00	465.77
841.00	454.84
842.00	447.82
843.00	439.24
844.00	457.18
845.00	464.21
846.00	449.38
847.00	435.34
848.00	463.43
849.00	458.74
850.00	468.11
851.00	425.20
852.00	408.81
853.00	409.59
854.00	411.93
855.00	433.00
856.00	409.59
857.00	420.52
858.00	430.66
859.00	447.82
860.00	443.14
861.00	426.76
862.00	441.58
863.00	455.62
864.00	461.09
865.00	437.68
866.00	429.10
867.00	419.74
868.00	420.52
869.00	417.40
870.00	418.96
871.00	442.36
872.00	433.78
873.00	464.21
874.00	450.94
875.00	440.80
876.00	443.14
877.00	430.66
878.00	440.80
879.00	415.84
880.00	412.71
881.00	425.98
882.00	415.84
883.00	439.24
884.00	438.46
885.00	458.75
886.00	495.41
887.00	515.70
888.00	507.90
889.00	474.35
890.00	440.80
891.00	437.68
892.00	422.08
893.00	440.02
894.00	429.88
895.00	448.60
896.00	450.16
897.00	443.14
898.00	424.42
899.00	407.25
900.00	409.59
901.00	421.30
902.00	443.14
903.00	527.40
904.00	649.11
905.00	741.95
906.00	795.00
907.00	778.62
908.00	766.14
909.00	1005.65
910.00	1053.24
911.00	1116.44
912.00	913.59
913.00	907.35
914.00	830.11
915.00	711.52
916.00	599.96
917.00	535.20
918.00	493.85
919.00	457.18
920.00	450.94
921.00	469.67
922.00	495.41
923.00	488.39
924.00	480.59
925.00	464.99
926.00	477.47
927.00	471.23
928.00	464.99
929.00	453.28
930.00	454.84
931.00	440.80
932.00	434.56
933.00	411.15
934.00	411.93
935.00	409.59
936.00	418.18
937.00	444.70
938.00	458.75
939.00	446.26
940.00	445.48
941.00	438.46
942.00	478.25
943.00	631.94
944.00	1045.44
945.00	1899.73
946.00	2896.02
947.00	3594.28
948.00	3627.83
949.00	3118.37
950.00	2356.92
951.00	1621.99
952.00	1036.86
953.00	708.40
954.00	552.37
955.00	507.12
956.00	512.58
957.00	504.78
958.00	497.75
959.00	475.13
960.00	450.16
961.00	418.96
962.00	408.81
963.00	436.12
964.00	464.21
965.00	476.69
966.00	477.47
967.00	461.09
968.00	461.87
969.00	466.55
970.00	479.03
971.00	489.17
972.00	482.15
973.00	482.93
974.00	471.23
975.00	474.35
976.00	469.67
977.00	443.14
978.00	408.81
979.00	401.79
980.00	411.15
981.00	425.98
982.00	433.00
983.00	429.88
984.00	429.10
985.00	411.15
986.00	413.49
987.00	426.76
988.00	429.10
989.00	447.82
990.00	442.36
991.00	433.78
992.00	423.64
993.00	413.49
994.00	415.84
995.00	411.93
996.00	447.04
997.00	440.02
998.00	445.48
999.00	433.78
1000.00	470.45
1001.00	476.69
1002.00	467.33
1003.00	465.77
1004.00	479.03
1005.00	483.71
1006.00	480.59
1007.00	447.82
1008.00	454.84
1009.00	474.35
1010.00	501.65
1011.00	468.89
1012.00	443.14
1013.00	429.88
1014.00	449.38
1015.00	455.62
1016.00	452.50
1017.00	451.72
1018.00	427.54
1019.00	424.42
1020.00	436.90
1021.00	465.77
1022.00	479.03
1023.00	460.31
1024.00	425.20
1025.00	428.32
1026.00	435.34
1027.00	450.16
1028.00	425.20
1029.00	433.00
1030.00	435.34
1031.00	456.40
1032.00	448.60
1033.00	455.62
1034.00	442.36
1035.00	425.98
1036.00	433.78
1037.00	453.28
1038.00	469.67
1039.00	454.84
1040.00	465.77
1041.00	469.67
1042.00	489.95
1043.00	499.31
1044.00	520.38
1045.00	558.61
1046.00	538.32
1047.00	500.87
1048.00	435.34
1049.00	398.67
1050.00	432.22
1051.00	433.00
1052.00	456.40
1053.00	456.40
1054.00	484.49
1055.00	468.11
1056.00	419.74
1057.00	394.77
1058.00	415.06
1059.00	418.96
1060.00	432.22
1061.00	431.44
1062.00	425.20
1063.00	413.49
1064.00	388.53
1065.00	443.14
1066.00	443.14
1067.00	443.14
1068.00	422.08
1069.00	409.59
1070.00	454.06
1071.00	454.84
1072.00	465.77
1073.00	465.77
1074.00	473.57
1075.00	473.57
1076.00	452.50
1077.00	446.26
1078.00	458.75
1079.00	496.19
1080.00	496.19
1081.00	504.78
1082.00	468.11
1083.00	440.80
1084.00	443.92
1085.00	435.34
1086.00	487.61
1087.00	472.01
1088.00	471.23
1089.00	442.36
1090.00	430.66
1091.00	413.49
1092.00	409.59
1093.00	414.27
1094.00	450.16
1095.00	467.33
1096.00	457.96
1097.00	459.53
1098.00	468.11
1099.00	518.82
1100.00	555.49
1101.00	576.55
1102.00	578.89
1103.00	550.03
1104.00	535.20
1105.00	516.48
1106.00	476.69
1107.00	450.94
1108.00	447.82
1109.00	469.67
1110.00	470.45
1111.00	449.38
1112.00	441.58
1113.00	440.02
1114.00	433.78
1115.00	421.30
1116.00	429.10
1117.00	451.72
1118.00	483.71
1119.00	510.24
1120.00	525.06
1121.00	542.22
1122.00	550.81
1123.00	554.71
1124.00	538.32
1125.00	504.78
1126.00	453.28
1127.00	470.45
1128.00	471.23
1129.00	519.60
1130.00	504.78
1131.00	486.83
1132.00	462.65
1133.00	451.72
1134.00	457.18
1135.00	448.60
1136.00	467.33
1137.00	480.59
1138.00	507.90
1139.00	507.12
1140.00	530.52
1141.00	511.80
1142.00	509.46
1143.00	478.25
1144.00	479.81
1145.00	475.91
1146.00	488.39
1147.00	494.63
1148.00	466.55
1149.00	448.60
1150.00	479.03
1151.00	491.51
1152.00	504.78
1153.00	482.15
1154.00	547.69
1155.00	606.20
1156.00	677.20
1157.00	729.47
1158.00	761.45
1159.00	748.97
1160.00	680.32
1161.00	599.18
1162.00	553.15
1163.00	583.57
1164.00	747.41
1165.00	1052.46
1166.00	1414.46
1167.00	1673.48
1168.00	1714.05
1169.00	1555.68
1170.00	1298.22
1171.00	1029.06
1172.00	816.07
1173.00	659.25
1174.00	596.06
1175.00	557.05
1176.00	593.72
1177.00	590.60
1178.00	583.57
1179.00	578.11
1180.00	578.89
1181.00	596.06
1182.00	585.91
1183.00	613.22
1184.00	610.10
1185.00	635.07
1186.00	623.36
1187.00	653.79
1188.00	645.99
1189.00	685.78
1190.00	738.05
1191.00	838.69
1192.00	908.91
1193.00	947.92
1194.00	910.47
1195.00	861.32
1196.00	835.57
1197.00	830.11
1198.00	894.08
1199.00	1019.69
1200.00	1203.04
1201.00	1374.67
1202.00	1458.15
1203.00	1479.22
1204.00	1419.14
1205.00	1300.56
1206.00	1195.23
1207.00	1122.68
1208.00	1139.84
1209.00	1180.41
1210.00	1207.72
1211.00	1238.92
1212.00	1315.38
1213.00	1488.58
1214.00	1721.07
1215.00	2007.40
1216.00	2515.30
1217.00	5792.83
1218.00	21191.99
1219.00	41958.00
1220.00	59868.56
1221.00	65535.00
1222.00	65535.00
1223.00	65535.00
1224.00	65535.00
1225.00	65324.35
1226.00	56262.58
1227.00	40751.07
1228.00	22100.90
1229.00	10831.22
1230.00	5426.14
1231.00	3141.78
1232.00	2207.13
1233.00	1840.44
1234.00	1660.22
1235.00	1661.00
1236.00	2104.14
1237.00	3746.42
1238.00	7060.62
1239.00	11594.23
1240.00	15318.03
1241.00	16482.83
1242.00	14711.05
1243.00	11357.06
1244.00	7701.92
1245.00	4764.55
1246.00	2754.81
1247.00	1762.42
1248.00	1259.99
1249.00	1025.15
1250.00	936.99
1251.00	971.32
1252.00	1114.10
1253.00	1219.42
1254.00	1267.79
1255.00	1238.14
1256.00	1175.73
1257.00	1130.48
1258.00	1081.33
1259.00	1020.47
1260.00	957.28
1261.00	921.39
1262.00	907.35
1263.00	858.98
1264.00	804.36
1265.00	783.30
1266.00	780.96
1267.00	765.36
1268.00	770.04
1269.00	770.82
1270.00	791.88
1271.00	777.84
1272.00	789.54
1273.00	803.58
1274.00	859.76
1275.00	1245.16
1276.00	2980.28
1277.00	7158.14
1278.00	14578.42
1279.00	22856.89
1280.00	28473.40
1281.00	28489.00
1282.00	24216.74
1283.00	17810.70
1284.00	11728.42
1285.00	6790.67
1286.00	3684.78
1287.00	2098.68
1288.00	1336.45
1289.00	1038.42
1290.00	898.77
1291.00	859.76
1292.00	868.34
1293.00	897.99
1294.00	959.62
1295.00	1129.70
1296.00	1773.35
1297.00	3012.27
1298.00	4787.18
1299.00	6235.97
1300.00	6803.16
1301.00	6273.42
1302.00	5084.42
1303.00	3680.10
1304.00	2421.67
1305.00	1580.64
1306.00	1150.76
1307.00	973.66
1308.00	875.36
1309.00	819.97
1310.00	798.90
1311.00	734.15
1312.00	686.56
1313.00	599.96
1314.00	589.81
1315.00	571.87
1316.00	576.55
1317.00	582.01
1318.00	571.87
1319.00	559.39
1320.00	542.22
1321.00	525.06
1322.00	523.50
1323.00	530.52
1324.00	547.69
1325.00	555.49
1326.00	571.09
1327.00	562.51
1328.00	597.62
1329.00	656.91
1330.00	1024.37
1331.00	1928.60
1332.00	3516.26
1333.00	5436.28
1334.00	6945.15
1335.00	7388.29
1336.00	6688.47
1337.00	5281.81
1338.00	3713.65
1339.00	2409.97
1340.00	1501.84
1341.00	1030.62
1342.00	795.00
1343.00	700.60
1344.00	675.63
1345.00	654.57
1346.00	642.09
1347.00	614.00
1348.00	638.19
1349.00	646.77
1350.00	643.65
1351.00	635.07
1352.00	668.61
1353.00	711.52
1354.00	731.03
1355.00	717.76
1356.00	760.67
