SpectraSuite Data File
++++++++++++++++++++++++++++++++++++
Date: Thu Nov 16 13:55:14 EST 2017
User: cheriyan
Dark Spectrum Present: No
Reference Spectrum Present: No
Number of Sampled Component Spectra: 1
Spectrometers: USB2+H05261
Integration Time (usec): 100000 (USB2+H05261)
Spectra Averaged: 1 (USB2+H05261)
Boxcar Smoothing: 1 (USB2+H05261)
Correct for Electrical Dark: No (USB2+H05261)
Strobe/Lamp Enabled: No (USB2+H05261)
Correct for Detector Non-linearity: No (USB2+H05261)
Correct for Stray Light: No (USB2+H05261)
Number of Pixels in Processed Spectrum: 2048
>>>>>Begin Processed Spectral Data<<<<<
0.00	355.76
1.00	355.76
2.00	356.54
3.00	311.29
4.00	252.00
5.00	219.23
6.00	191.92
7.00	206.75
8.00	192.70
9.00	228.59
10.00	234.83
11.00	246.54
12.00	259.02
13.00	252.00
14.00	237.17
15.00	213.77
16.00	224.69
17.00	237.17
18.00	238.73
19.00	234.83
20.00	244.20
21.00	273.06
22.00	306.61
23.00	323.77
24.00	328.46
25.00	320.65
26.00	332.36
27.00	357.32
28.00	363.56
29.00	393.21
30.00	371.36
31.00	376.05
32.00	366.68
33.00	375.27
34.00	390.87
35.00	393.21
36.00	392.43
37.00	390.09
38.00	397.11
39.00	414.27
40.00	414.27
41.00	397.89
42.00	390.09
43.00	411.93
44.00	442.36
45.00	452.50
46.00	453.28
47.00	424.42
48.00	436.12
49.00	424.42
50.00	435.34
51.00	432.22
52.00	452.50
53.00	452.50
54.00	425.98
55.00	397.11
56.00	366.68
57.00	392.43
58.00	403.35
59.00	425.98
60.00	410.37
61.00	401.79
62.00	398.67
63.00	401.01
64.00	409.59
65.00	402.57
66.00	393.21
67.00	383.07
68.00	388.53
69.00	408.81
70.00	410.37
71.00	426.76
72.00	433.00
73.00	438.46
74.00	426.76
75.00	406.47
76.00	390.87
77.00	372.93
78.00	383.85
79.00	411.15
80.00	436.90
81.00	410.37
82.00	392.43
83.00	362.78
84.00	372.15
85.00	347.96
86.00	357.32
87.00	374.49
88.00	402.57
89.00	418.96
90.00	393.99
91.00	391.65
92.00	388.53
93.00	387.75
94.00	376.05
95.00	358.88
96.00	386.97
97.00	388.53
98.00	401.01
99.00	407.25
100.00	412.71
101.00	399.45
102.00	365.90
103.00	404.91
104.00	406.47
105.00	411.15
106.00	361.22
107.00	378.39
108.00	392.43
109.00	410.37
110.00	392.43
111.00	405.69
112.00	397.11
113.00	440.80
114.00	457.18
115.00	451.72
116.00	417.40
117.00	405.69
118.00	414.27
119.00	429.88
120.00	415.06
121.00	405.69
122.00	407.25
123.00	393.99
124.00	423.64
125.00	417.40
126.00	413.49
127.00	391.65
128.00	387.75
129.00	391.65
130.00	389.31
131.00	384.63
132.00	379.95
133.00	399.45
134.00	395.55
135.00	418.18
136.00	428.32
137.00	433.00
138.00	426.76
139.00	397.89
140.00	422.86
141.00	421.30
142.00	422.86
143.00	408.03
144.00	445.48
145.00	489.95
146.00	494.63
147.00	494.63
148.00	486.05
149.00	487.61
150.00	482.15
151.00	434.56
152.00	424.42
153.00	407.25
154.00	446.26
155.00	423.64
156.00	410.37
157.00	386.97
158.00	404.13
159.00	404.13
160.00	408.03
161.00	407.25
162.00	410.37
163.00	390.09
164.00	397.11
165.00	411.93
166.00	442.36
167.00	450.94
168.00	425.98
169.00	412.71
170.00	377.61
171.00	383.07
172.00	382.29
173.00	390.09
174.00	397.11
175.00	409.59
176.00	409.59
177.00	400.23
178.00	391.65
179.00	405.69
180.00	414.27
181.00	411.15
182.00	425.20
183.00	436.90
184.00	414.27
185.00	387.75
186.00	375.27
187.00	405.69
188.00	411.93
189.00	408.03
190.00	377.61
191.00	398.67
192.00	399.45
193.00	459.53
194.00	454.06
195.00	476.69
196.00	496.19
197.00	531.30
198.00	538.32
199.00	486.83
200.00	443.14
201.00	432.22
202.00	432.22
203.00	438.46
204.00	425.98
205.00	412.71
206.00	396.33
207.00	386.19
208.00	404.91
209.00	412.71
210.00	433.00
211.00	418.18
212.00	404.91
213.00	369.80
214.00	385.41
215.00	411.93
216.00	426.76
217.00	401.01
218.00	404.13
219.00	418.96
220.00	444.70
221.00	427.54
222.00	422.08
223.00	426.76
224.00	412.71
225.00	390.87
226.00	355.76
227.00	364.34
228.00	346.40
229.00	367.46
230.00	363.56
231.00	397.89
232.00	385.41
233.00	379.95
234.00	387.75
235.00	379.95
236.00	393.21
237.00	376.83
238.00	395.55
239.00	378.39
240.00	406.47
241.00	386.19
242.00	416.62
243.00	398.67
244.00	425.98
245.00	406.47
246.00	394.77
247.00	408.81
248.00	420.52
249.00	430.66
250.00	393.21
251.00	386.19
252.00	396.33
253.00	435.34
254.00	447.04
255.00	490.73
256.00	483.71
257.00	472.79
258.00	434.56
259.00	421.30
260.00	423.64
261.00	403.35
262.00	394.77
263.00	413.49
264.00	436.12
265.00	466.55
266.00	457.18
267.00	497.75
268.00	540.66
269.00	574.99
270.00	565.63
271.00	566.41
272.00	614.78
273.00	647.55
274.00	633.50
275.00	614.78
276.00	599.18
277.00	589.82
278.00	550.81
279.00	527.40
280.00	497.75
281.00	459.53
282.00	422.08
283.00	422.86
284.00	438.46
285.00	426.76
286.00	418.96
287.00	435.34
288.00	449.38
289.00	443.92
290.00	418.96
291.00	432.22
292.00	418.18
293.00	398.67
294.00	378.39
295.00	385.41
296.00	408.81
297.00	428.32
298.00	426.76
299.00	429.10
300.00	415.06
301.00	423.64
302.00	421.30
303.00	433.78
304.00	450.16
305.00	476.69
306.00	486.83
307.00	537.54
308.00	613.22
309.00	659.25
310.00	645.99
311.00	578.11
312.00	547.69
313.00	511.80
314.00	498.53
315.00	482.15
316.00	471.23
317.00	465.77
318.00	445.48
319.00	443.92
320.00	419.74
321.00	418.18
322.00	418.18
323.00	435.34
324.00	433.78
325.00	451.72
326.00	447.82
327.00	450.16
328.00	425.20
329.00	417.40
330.00	414.27
331.00	419.74
332.00	418.96
333.00	418.96
334.00	422.08
335.00	425.20
336.00	418.96
337.00	420.52
338.00	430.66
339.00	428.32
340.00	433.78
341.00	440.80
342.00	445.48
343.00	449.38
344.00	440.80
345.00	460.31
346.00	507.12
347.00	590.60
348.00	711.52
349.00	748.97
350.00	710.74
351.00	608.54
352.00	558.61
353.00	526.62
354.00	536.76
355.00	514.14
356.00	497.75
357.00	493.85
358.00	470.45
359.00	447.82
360.00	408.03
361.00	443.14
362.00	441.58
363.00	458.75
364.00	408.81
365.00	456.40
366.00	457.18
367.00	458.75
368.00	454.84
369.00	445.48
370.00	449.38
371.00	423.64
372.00	398.67
373.00	419.74
374.00	407.25
375.00	397.89
376.00	379.17
377.00	380.73
378.00	401.01
379.00	388.53
380.00	393.21
381.00	390.09
382.00	401.79
383.00	401.01
384.00	420.52
385.00	417.40
386.00	435.34
387.00	393.21
388.00	393.21
389.00	365.12
390.00	389.31
391.00	366.68
392.00	394.77
393.00	397.11
394.00	422.86
395.00	417.40
396.00	426.76
397.00	454.06
398.00	465.77
399.00	473.57
400.00	443.92
401.00	438.46
402.00	402.57
403.00	394.77
404.00	368.24
405.00	384.63
406.00	388.53
407.00	394.77
408.00	418.96
409.00	420.52
410.00	428.32
411.00	374.49
412.00	377.61
413.00	376.05
414.00	394.77
415.00	393.99
416.00	401.01
417.00	418.18
418.00	406.47
419.00	383.85
420.00	375.27
421.00	374.49
422.00	388.53
423.00	391.65
424.00	400.23
425.00	405.69
426.00	390.87
427.00	371.36
428.00	372.15
429.00	387.75
430.00	400.23
431.00	376.05
432.00	359.66
433.00	391.65
434.00	424.42
435.00	445.48
436.00	422.08
437.00	411.15
438.00	408.03
439.00	411.93
440.00	431.44
441.00	457.18
442.00	484.49
443.00	487.61
444.00	468.11
445.00	448.60
446.00	430.66
447.00	410.37
448.00	402.57
449.00	380.73
450.00	418.96
451.00	457.96
452.00	480.59
453.00	488.39
454.00	446.26
455.00	439.24
456.00	428.32
457.00	457.18
458.00	473.57
459.00	472.79
460.00	447.82
461.00	416.62
462.00	389.31
463.00	379.17
464.00	379.17
465.00	393.99
466.00	431.44
467.00	451.72
468.00	445.48
469.00	414.27
470.00	403.35
471.00	430.66
472.00	463.43
473.00	486.05
474.00	430.66
475.00	425.20
476.00	382.29
477.00	393.99
478.00	378.39
479.00	404.13
480.00	403.35
481.00	380.73
482.00	389.31
483.00	415.06
484.00	425.20
485.00	403.35
486.00	423.64
487.00	418.96
488.00	440.80
489.00	393.99
490.00	401.79
491.00	415.84
492.00	453.28
493.00	462.65
494.00	451.72
495.00	427.54
496.00	442.36
497.00	450.94
498.00	462.65
499.00	446.26
500.00	447.04
501.00	475.91
502.00	459.53
503.00	422.08
504.00	377.61
505.00	402.57
506.00	443.14
507.00	454.84
508.00	422.08
509.00	403.35
510.00	393.21
511.00	395.55
512.00	417.40
513.00	441.58
514.00	466.55
515.00	413.49
516.00	388.53
517.00	393.99
518.00	449.38
519.00	461.87
520.00	443.14
521.00	405.69
522.00	419.74
523.00	434.56
524.00	440.02
525.00	453.28
526.00	443.14
527.00	445.48
528.00	415.84
529.00	414.27
530.00	411.93
531.00	426.76
532.00	433.78
533.00	443.14
534.00	434.56
535.00	454.06
536.00	481.37
537.00	475.13
538.00	438.46
539.00	427.54
540.00	443.92
541.00	429.88
542.00	399.45
543.00	387.75
544.00	411.93
545.00	423.64
546.00	422.86
547.00	443.14
548.00	437.68
549.00	455.62
550.00	443.92
551.00	447.04
552.00	429.88
553.00	411.15
554.00	418.96
555.00	418.96
556.00	450.94
557.00	455.62
558.00	462.65
559.00	441.58
560.00	422.86
561.00	430.66
562.00	453.28
563.00	461.09
564.00	437.68
565.00	443.14
566.00	454.84
567.00	470.45
568.00	422.08
569.00	415.06
570.00	400.23
571.00	438.46
572.00	436.12
573.00	445.48
574.00	416.62
575.00	428.32
576.00	433.00
577.00	438.46
578.00	396.33
579.00	389.31
580.00	401.79
581.00	406.47
582.00	386.19
583.00	386.19
584.00	401.01
585.00	438.46
586.00	442.36
587.00	427.54
588.00	397.11
589.00	373.71
590.00	394.77
591.00	393.21
592.00	420.52
593.00	434.56
594.00	446.26
595.00	433.00
596.00	411.93
597.00	438.46
598.00	458.74
599.00	453.28
600.00	448.60
601.00	412.71
602.00	399.45
603.00	393.21
604.00	393.21
605.00	417.40
606.00	423.64
607.00	437.68
608.00	429.88
609.00	392.43
610.00	386.19
611.00	435.34
612.00	464.21
613.00	495.41
614.00	455.62
615.00	433.00
616.00	407.25
617.00	395.55
618.00	397.11
619.00	397.89
620.00	411.15
621.00	436.90
622.00	450.94
623.00	456.40
624.00	450.16
625.00	436.12
626.00	434.56
627.00	427.54
628.00	433.00
629.00	425.98
630.00	411.93
631.00	423.64
632.00	435.34
633.00	480.59
634.00	455.62
635.00	428.32
636.00	411.15
637.00	443.92
638.00	488.39
639.00	514.92
640.00	504.00
641.00	486.05
642.00	447.04
643.00	419.74
644.00	418.18
645.00	408.03
646.00	424.42
647.00	429.10
648.00	419.74
649.00	425.98
650.00	442.36
651.00	483.71
652.00	479.81
653.00	448.60
654.00	470.45
655.00	470.45
656.00	480.59
657.00	436.90
658.00	462.65
659.00	454.06
660.00	440.02
661.00	421.30
662.00	435.34
663.00	454.06
664.00	443.14
665.00	445.48
666.00	447.82
667.00	472.01
668.00	479.81
669.00	480.59
670.00	469.67
671.00	482.93
672.00	479.03
673.00	486.05
674.00	439.24
675.00	422.08
676.00	391.65
677.00	399.45
678.00	426.76
679.00	442.36
680.00	436.90
681.00	402.57
682.00	400.23
683.00	401.01
684.00	422.86
685.00	440.02
686.00	444.70
687.00	432.22
688.00	399.45
689.00	406.47
690.00	404.91
691.00	436.90
692.00	443.92
693.00	440.02
694.00	435.34
695.00	447.04
696.00	450.94
697.00	437.68
698.00	396.33
699.00	379.17
700.00	389.31
701.00	423.64
702.00	450.16
703.00	425.20
704.00	398.67
705.00	395.55
706.00	422.08
707.00	439.24
708.00	445.48
709.00	414.27
710.00	401.79
711.00	382.29
712.00	418.18
713.00	431.44
714.00	429.10
715.00	417.40
716.00	408.81
717.00	422.08
718.00	461.87
719.00	464.99
720.00	474.35
721.00	440.02
722.00	481.37
723.00	478.25
724.00	458.74
725.00	429.10
726.00	412.71
727.00	431.44
728.00	411.15
729.00	459.53
730.00	472.79
731.00	494.63
732.00	464.21
733.00	464.99
734.00	489.17
735.00	533.64
736.00	551.59
737.00	526.62
738.00	469.67
739.00	433.00
740.00	414.27
741.00	426.76
742.00	423.64
743.00	454.84
744.00	462.65
745.00	473.57
746.00	440.02
747.00	433.78
748.00	422.08
749.00	418.96
750.00	429.10
751.00	445.48
752.00	460.31
753.00	437.68
754.00	436.12
755.00	416.62
756.00	425.20
757.00	432.22
758.00	454.84
759.00	472.79
760.00	461.09
761.00	468.89
762.00	465.77
763.00	476.69
764.00	492.29
765.00	468.11
766.00	456.40
767.00	435.34
768.00	458.75
769.00	443.14
770.00	439.24
771.00	436.90
772.00	460.31
773.00	455.62
774.00	446.26
775.00	426.76
776.00	433.00
777.00	419.74
778.00	445.48
779.00	475.13
780.00	522.72
781.00	534.42
782.00	550.81
783.00	615.56
784.00	605.42
785.00	553.93
786.00	446.26
787.00	427.54
788.00	427.54
789.00	449.38
790.00	436.90
791.00	436.12
792.00	421.30
793.00	435.34
794.00	460.31
795.00	473.57
796.00	475.13
797.00	450.94
798.00	454.84
799.00	480.59
800.00	480.59
801.00	473.57
802.00	468.11
803.00	472.79
804.00	464.21
805.00	443.92
806.00	440.80
807.00	433.78
808.00	415.84
809.00	408.81
810.00	420.52
811.00	432.22
812.00	421.30
813.00	389.31
814.00	391.65
815.00	401.01
816.00	419.74
817.00	429.88
818.00	451.72
819.00	450.94
820.00	465.77
821.00	474.35
822.00	499.31
823.00	502.43
824.00	475.13
825.00	462.65
826.00	453.28
827.00	450.94
828.00	425.98
829.00	414.27
830.00	461.87
831.00	472.01
832.00	493.85
833.00	443.92
834.00	468.89
835.00	447.04
836.00	443.92
837.00	452.50
838.00	445.48
839.00	472.01
840.00	445.48
841.00	436.90
842.00	444.70
843.00	458.74
844.00	495.41
845.00	468.89
846.00	474.35
847.00	455.62
848.00	454.06
849.00	429.88
850.00	421.30
851.00	410.37
852.00	395.55
853.00	378.39
854.00	380.73
855.00	400.23
856.00	420.52
857.00	424.42
858.00	424.42
859.00	408.03
860.00	411.93
861.00	434.56
862.00	465.77
863.00	481.37
864.00	454.06
865.00	443.92
866.00	433.00
867.00	439.24
868.00	434.56
869.00	427.54
870.00	429.88
871.00	436.12
872.00	463.43
873.00	450.16
874.00	432.22
875.00	426.76
876.00	462.65
877.00	486.05
878.00	496.97
879.00	471.23
880.00	457.18
881.00	447.82
882.00	465.77
883.00	483.71
884.00	472.79
885.00	442.36
886.00	441.58
887.00	439.24
888.00	465.77
889.00	447.04
890.00	436.90
891.00	429.88
892.00	418.18
893.00	424.42
894.00	428.32
895.00	441.58
896.00	453.28
897.00	443.14
898.00	453.28
899.00	455.62
900.00	459.53
901.00	448.60
902.00	470.45
903.00	547.69
904.00	683.44
905.00	777.06
906.00	831.67
907.00	775.50
908.00	744.29
909.00	977.56
910.00	1020.47
911.00	1066.50
912.00	879.26
913.00	906.57
914.00	864.44
915.00	734.93
916.00	631.94
917.00	580.45
918.00	548.47
919.00	508.68
920.00	440.80
921.00	444.70
922.00	451.72
923.00	480.59
924.00	480.59
925.00	470.45
926.00	461.09
927.00	451.72
928.00	430.66
929.00	425.98
930.00	433.00
931.00	437.68
932.00	447.04
933.00	410.37
934.00	432.22
935.00	450.94
936.00	480.59
937.00	476.69
938.00	467.33
939.00	449.38
940.00	451.72
941.00	452.50
942.00	495.41
943.00	624.92
944.00	1066.50
945.00	1905.20
946.00	2936.59
947.00	3707.41
948.00	3711.31
949.00	3219.02
950.00	2359.26
951.00	1653.20
952.00	1056.36
953.00	729.47
954.00	592.16
955.00	511.80
956.00	482.15
957.00	465.77
958.00	454.06
959.00	461.87
960.00	447.04
961.00	444.70
962.00	434.56
963.00	440.80
964.00	459.53
965.00	460.31
966.00	441.58
967.00	426.76
968.00	436.12
969.00	440.80
970.00	438.46
971.00	430.66
972.00	440.80
973.00	455.62
974.00	471.23
975.00	473.57
976.00	485.27
977.00	464.21
978.00	445.48
979.00	429.88
980.00	436.90
981.00	429.88
982.00	431.44
983.00	412.71
984.00	412.71
985.00	388.53
986.00	384.63
987.00	376.83
988.00	414.27
989.00	416.62
990.00	433.78
991.00	415.06
992.00	423.64
993.00	417.40
994.00	423.64
995.00	443.92
996.00	486.05
997.00	473.57
998.00	456.40
999.00	420.52
1000.00	440.80
1001.00	454.84
1002.00	472.79
1003.00	489.95
1004.00	489.17
1005.00	482.93
1006.00	497.75
1007.00	493.07
1008.00	469.67
1009.00	449.38
1010.00	461.87
1011.00	482.15
1012.00	482.93
1013.00	479.81
1014.00	478.25
1015.00	443.14
1016.00	422.86
1017.00	418.18
1018.00	431.44
1019.00	453.28
1020.00	458.75
1021.00	449.38
1022.00	424.42
1023.00	425.98
1024.00	446.26
1025.00	446.26
1026.00	440.80
1027.00	449.38
1028.00	468.89
1029.00	492.29
1030.00	474.35
1031.00	465.77
1032.00	456.40
1033.00	466.55
1034.00	449.38
1035.00	447.04
1036.00	443.14
1037.00	461.87
1038.00	456.40
1039.00	471.23
1040.00	475.13
1041.00	496.97
1042.00	467.33
1043.00	496.97
1044.00	521.94
1045.00	602.30
1046.00	571.09
1047.00	532.86
1048.00	467.33
1049.00	449.38
1050.00	432.22
1051.00	436.12
1052.00	429.88
1053.00	443.92
1054.00	435.34
1055.00	437.68
1056.00	431.44
1057.00	440.02
1058.00	444.70
1059.00	427.54
1060.00	417.40
1061.00	427.54
1062.00	421.30
1063.00	429.10
1064.00	436.12
1065.00	487.61
1066.00	490.73
1067.00	480.59
1068.00	475.13
1069.00	465.77
1070.00	454.06
1071.00	422.08
1072.00	440.02
1073.00	468.11
1074.00	480.59
1075.00	460.31
1076.00	436.12
1077.00	440.80
1078.00	457.96
1079.00	477.47
1080.00	472.01
1081.00	460.31
1082.00	475.91
1083.00	453.28
1084.00	450.94
1085.00	403.35
1086.00	423.64
1087.00	439.24
1088.00	461.09
1089.00	479.03
1090.00	470.45
1091.00	454.84
1092.00	438.46
1093.00	434.56
1094.00	463.43
1095.00	475.91
1096.00	481.37
1097.00	486.05
1098.00	486.05
1099.00	522.72
1100.00	551.59
1101.00	585.91
1102.00	562.51
1103.00	540.66
1104.00	522.72
1105.00	527.40
1106.00	506.34
1107.00	498.53
1108.00	482.15
1109.00	499.31
1110.00	470.45
1111.00	443.14
1112.00	415.84
1113.00	443.14
1114.00	474.35
1115.00	493.85
1116.00	464.99
1117.00	433.00
1118.00	428.32
1119.00	446.26
1120.00	474.35
1121.00	507.12
1122.00	543.00
1123.00	538.32
1124.00	494.63
1125.00	468.11
1126.00	476.69
1127.00	494.63
1128.00	465.77
1129.00	457.96
1130.00	453.28
1131.00	461.87
1132.00	458.75
1133.00	450.94
1134.00	440.80
1135.00	447.82
1136.00	481.37
1137.00	546.12
1138.00	535.20
1139.00	546.91
1140.00	539.88
1141.00	551.59
1142.00	513.36
1143.00	473.57
1144.00	447.82
1145.00	440.02
1146.00	442.36
1147.00	457.96
1148.00	474.35
1149.00	476.69
1150.00	483.71
1151.00	478.25
1152.00	486.83
1153.00	501.65
1154.00	560.17
1155.00	607.76
1156.00	699.82
1157.00	722.45
1158.00	718.54
1159.00	685.78
1160.00	638.19
1161.00	628.82
1162.00	582.79
1163.00	631.94
1164.00	792.66
1165.00	1092.25
1166.00	1405.88
1167.00	1663.34
1168.00	1708.59
1169.00	1583.76
1170.00	1300.56
1171.00	1007.99
1172.00	805.92
1173.00	676.41
1174.00	631.94
1175.00	590.60
1176.00	582.79
1177.00	585.91
1178.00	596.84
1179.00	578.89
1180.00	575.77
1181.00	576.55
1182.00	614.78
1183.00	653.79
1184.00	678.76
1185.00	658.47
1186.00	624.92
1187.00	634.29
1188.00	663.93
1189.00	757.55
1190.00	803.58
1191.00	885.50
1192.00	913.59
1193.00	928.41
1194.00	887.06
1195.00	856.64
1196.00	829.33
1197.00	846.49
1198.00	875.36
1199.00	1004.09
1200.00	1185.09
1201.00	1406.66
1202.00	1495.60
1203.00	1494.82
1204.00	1401.20
1205.00	1320.06
1206.00	1221.76
1207.00	1138.28
1208.00	1135.16
1209.00	1159.35
1210.00	1196.79
1211.00	1231.90
1212.00	1348.93
1213.00	1518.23
1214.00	1740.58
1215.00	1978.53
1216.00	2459.90
1217.00	5712.47
1218.00	21101.49
1219.00	41894.81
1220.00	59827.99
1221.00	65535.00
1222.00	65535.00
1223.00	65535.00
1224.00	65535.00
1225.00	65376.62
1226.00	56254.78
1227.00	40635.60
1228.00	21941.74
1229.00	10728.24
1230.00	5414.44
1231.00	3097.31
1232.00	2184.50
1233.00	1824.84
1234.00	1696.89
1235.00	1650.08
1236.00	2137.69
1237.00	3800.25
1238.00	7176.08
1239.00	11700.34
1240.00	15377.32
1241.00	16428.22
1242.00	14662.68
1243.00	11304.01
1244.00	7756.54
1245.00	4797.32
1246.00	2792.26
1247.00	1732.00
1248.00	1195.23
1249.00	949.48
1250.00	912.81
1251.00	969.76
1252.00	1082.11
1253.00	1164.81
1254.00	1208.50
1255.00	1178.07
1256.00	1120.34
1257.00	1063.38
1258.00	1007.99
1259.00	964.30
1260.00	915.93
1261.00	925.29
1262.00	915.93
1263.00	897.99
1264.00	851.96
1265.00	800.46
1266.00	771.60
1267.00	752.87
1268.00	748.19
1269.00	748.97
1270.00	773.16
1271.00	802.80
1272.00	804.36
1273.00	804.36
1274.00	839.47
1275.00	1223.32
1276.00	2980.28
1277.00	7232.26
1278.00	14561.25
1279.00	22798.38
1280.00	28449.99
1281.00	28701.99
1282.00	24545.98
1283.00	17914.46
1284.00	11671.47
1285.00	6626.84
1286.00	3661.38
1287.00	2069.03
1288.00	1335.67
1289.00	1012.67
1290.00	915.15
1291.00	862.88
1292.00	855.08
1293.00	872.24
1294.00	885.50
1295.00	1083.67
1296.00	1698.45
1297.00	2995.89
1298.00	4701.36
1299.00	6241.43
1300.00	6761.03
1301.00	6284.34
1302.00	5074.28
1303.00	3720.67
1304.00	2499.69
1305.00	1587.66
1306.00	1164.03
1307.00	955.72
1308.00	893.30
1309.00	835.57
1310.00	781.74
1311.00	710.74
1312.00	643.65
1313.00	614.00
1314.00	600.74
1315.00	580.45
1316.00	560.95
1317.00	550.03
1318.00	539.88
1319.00	545.34
1320.00	544.56
1321.00	534.42
1322.00	532.08
1323.00	535.98
1324.00	566.41
1325.00	595.28
1326.00	605.42
1327.00	603.08
1328.00	594.50
1329.00	658.47
1330.00	1022.81
1331.00	1939.52
1332.00	3568.54
1333.00	5511.96
1334.00	7037.99
1335.00	7411.70
1336.00	6658.04
1337.00	5232.66
1338.00	3696.49
1339.00	2405.29
1340.00	1481.56
1341.00	1022.81
1342.00	787.98
1343.00	731.03
1344.00	676.41
1345.00	663.15
1346.00	623.36
1347.00	624.92
1348.00	617.90
1349.00	638.97
1350.00	624.92
1351.00	672.51
1352.00	655.35
1353.00	711.52
1354.00	707.62
1355.00	745.07
1356.00	768.48
