SpectraSuite Data File
++++++++++++++++++++++++++++++++++++
Date: Thu Nov 16 13:55:16 EST 2017
User: cheriyan
Dark Spectrum Present: No
Reference Spectrum Present: No
Number of Sampled Component Spectra: 1
Spectrometers: USB2+H05261
Integration Time (usec): 100000 (USB2+H05261)
Spectra Averaged: 1 (USB2+H05261)
Boxcar Smoothing: 1 (USB2+H05261)
Correct for Electrical Dark: No (USB2+H05261)
Strobe/Lamp Enabled: No (USB2+H05261)
Correct for Detector Non-linearity: No (USB2+H05261)
Correct for Stray Light: No (USB2+H05261)
Number of Pixels in Processed Spectrum: 2048
>>>>>Begin Processed Spectral Data<<<<<
0.00	332.36
1.00	332.36
2.00	307.39
3.00	275.40
4.00	260.58
5.00	251.22
6.00	248.88
7.00	237.17
8.00	228.59
9.00	239.51
10.00	236.39
11.00	246.54
12.00	227.03
13.00	224.69
14.00	230.15
15.00	209.09
16.00	206.75
17.00	211.43
18.00	252.00
19.00	244.98
20.00	242.64
21.00	246.54
22.00	269.16
23.00	294.91
24.00	294.13
25.00	320.65
26.00	330.02
27.00	359.66
28.00	358.88
29.00	370.58
30.00	389.31
31.00	394.77
32.00	383.85
33.00	379.17
34.00	391.65
35.00	383.07
36.00	373.71
37.00	369.02
38.00	404.91
39.00	410.37
40.00	426.76
41.00	414.27
42.00	437.68
43.00	436.90
44.00	441.58
45.00	438.46
46.00	447.82
47.00	442.36
48.00	421.30
49.00	397.11
50.00	408.03
51.00	420.52
52.00	446.26
53.00	422.86
54.00	425.98
55.00	400.23
56.00	408.03
57.00	409.59
58.00	415.84
59.00	422.08
60.00	392.43
61.00	389.31
62.00	397.11
63.00	430.66
64.00	425.20
65.00	389.31
66.00	369.02
67.00	362.00
68.00	404.13
69.00	417.40
70.00	446.26
71.00	426.76
72.00	428.32
73.00	410.37
74.00	401.79
75.00	381.51
76.00	369.02
77.00	403.35
78.00	420.52
79.00	419.74
80.00	385.41
81.00	362.78
82.00	376.83
83.00	394.77
84.00	404.13
85.00	404.91
86.00	399.45
87.00	399.45
88.00	406.47
89.00	400.23
90.00	415.06
91.00	415.06
92.00	399.45
93.00	386.19
94.00	367.46
95.00	389.31
96.00	396.33
97.00	404.91
98.00	407.25
99.00	402.57
100.00	408.81
101.00	393.99
102.00	380.73
103.00	354.98
104.00	376.83
105.00	395.55
106.00	412.71
107.00	418.96
108.00	412.71
109.00	427.54
110.00	425.98
111.00	427.54
112.00	428.32
113.00	408.81
114.00	393.99
115.00	386.19
116.00	387.75
117.00	405.69
118.00	397.89
119.00	382.29
120.00	379.95
121.00	397.11
122.00	418.18
123.00	430.66
124.00	417.40
125.00	405.69
126.00	397.89
127.00	416.62
128.00	439.24
129.00	473.57
130.00	448.60
131.00	452.50
132.00	424.42
133.00	425.20
134.00	402.57
135.00	393.99
136.00	391.65
137.00	413.49
138.00	411.93
139.00	416.62
140.00	376.05
141.00	360.44
142.00	385.41
143.00	420.52
144.00	450.16
145.00	456.40
146.00	455.62
147.00	472.79
148.00	469.67
149.00	462.65
150.00	427.54
151.00	421.30
152.00	429.10
153.00	416.62
154.00	397.89
155.00	414.27
156.00	449.38
157.00	444.70
158.00	421.30
159.00	393.21
160.00	395.55
161.00	386.97
162.00	440.02
163.00	455.62
164.00	447.82
165.00	411.93
166.00	356.54
167.00	340.16
168.00	337.04
169.00	405.69
170.00	428.32
171.00	417.40
172.00	410.37
173.00	436.12
174.00	428.32
175.00	406.47
176.00	394.77
177.00	381.51
178.00	403.35
179.00	397.11
180.00	433.00
181.00	415.84
182.00	414.27
183.00	415.06
184.00	422.86
185.00	403.35
186.00	390.09
187.00	383.85
188.00	378.39
189.00	377.61
190.00	379.17
191.00	424.42
192.00	432.22
193.00	459.53
194.00	446.26
195.00	496.97
196.00	499.31
197.00	513.36
198.00	466.55
199.00	456.40
200.00	440.02
201.00	472.01
202.00	448.60
203.00	425.98
204.00	379.95
205.00	386.97
206.00	395.55
207.00	411.93
208.00	393.21
209.00	411.93
210.00	450.16
211.00	463.43
212.00	437.68
213.00	376.83
214.00	336.26
215.00	349.52
216.00	364.34
217.00	407.25
218.00	399.45
219.00	393.21
220.00	370.58
221.00	376.05
222.00	393.21
223.00	426.76
224.00	429.10
225.00	433.78
226.00	424.42
227.00	424.42
228.00	404.91
229.00	392.43
230.00	385.41
231.00	380.73
232.00	388.53
233.00	413.49
234.00	429.88
235.00	440.02
236.00	423.64
237.00	424.42
238.00	406.47
239.00	413.49
240.00	407.25
241.00	415.84
242.00	420.52
243.00	414.27
244.00	418.18
245.00	404.13
246.00	422.86
247.00	454.06
248.00	457.18
249.00	437.68
250.00	397.89
251.00	386.19
252.00	399.45
253.00	418.18
254.00	449.38
255.00	479.81
256.00	474.35
257.00	488.39
258.00	464.21
259.00	483.71
260.00	478.25
261.00	460.31
262.00	445.48
263.00	416.62
264.00	433.00
265.00	451.72
266.00	485.27
267.00	548.47
268.00	566.41
269.00	567.97
270.00	554.71
271.00	560.17
272.00	589.03
273.00	582.01
274.00	582.01
275.00	562.51
276.00	557.83
277.00	551.59
278.00	537.54
279.00	536.76
280.00	501.65
281.00	474.35
282.00	428.32
283.00	422.86
284.00	434.56
285.00	418.18
286.00	408.03
287.00	378.39
288.00	415.06
289.00	417.40
290.00	430.66
291.00	401.79
292.00	393.99
293.00	394.77
294.00	391.65
295.00	423.64
296.00	409.59
297.00	418.96
298.00	400.23
299.00	421.30
300.00	413.49
301.00	416.62
302.00	412.71
303.00	415.84
304.00	408.81
305.00	443.92
306.00	473.57
307.00	535.20
308.00	612.44
309.00	646.77
310.00	654.57
311.00	602.30
312.00	551.59
313.00	507.12
314.00	455.62
315.00	441.58
316.00	418.18
317.00	413.49
318.00	417.40
319.00	430.66
320.00	447.04
321.00	448.60
322.00	447.82
323.00	416.62
324.00	397.11
325.00	358.88
326.00	367.46
327.00	383.85
328.00	410.37
329.00	423.64
330.00	407.25
331.00	409.59
332.00	395.55
333.00	410.37
334.00	414.27
335.00	439.24
336.00	439.24
337.00	456.40
338.00	417.40
339.00	436.90
340.00	425.20
341.00	454.84
342.00	417.40
343.00	397.11
344.00	425.98
345.00	482.15
346.00	527.40
347.00	591.38
348.00	684.22
349.00	741.17
350.00	699.04
351.00	633.50
352.00	578.89
353.00	560.95
354.00	544.56
355.00	546.12
356.00	528.96
357.00	524.28
358.00	482.15
359.00	457.18
360.00	411.93
361.00	440.02
362.00	454.84
363.00	482.93
364.00	454.06
365.00	436.90
366.00	401.79
367.00	404.91
368.00	437.68
369.00	450.16
370.00	447.04
371.00	406.47
372.00	379.95
373.00	400.23
374.00	405.69
375.00	434.56
376.00	412.71
377.00	418.18
378.00	400.23
379.00	431.44
380.00	422.86
381.00	424.42
382.00	388.53
383.00	401.01
384.00	403.35
385.00	414.27
386.00	409.59
387.00	404.13
388.00	409.59
389.00	425.98
390.00	446.26
391.00	424.42
392.00	412.71
393.00	397.89
394.00	420.52
395.00	434.56
396.00	463.43
397.00	459.53
398.00	433.78
399.00	418.96
400.00	422.08
401.00	416.62
402.00	429.88
403.00	444.70
404.00	458.75
405.00	469.67
406.00	440.02
407.00	435.34
408.00	383.07
409.00	390.87
410.00	408.03
411.00	415.84
412.00	416.62
413.00	430.66
414.00	455.62
415.00	447.82
416.00	426.76
417.00	427.54
418.00	412.71
419.00	409.59
420.00	399.45
421.00	434.56
422.00	463.43
423.00	455.62
424.00	443.92
425.00	414.27
426.00	407.25
427.00	386.97
428.00	391.65
429.00	418.96
430.00	436.90
431.00	434.56
432.00	411.15
433.00	411.93
434.00	410.37
435.00	417.40
436.00	412.71
437.00	420.52
438.00	425.20
439.00	410.37
440.00	410.37
441.00	418.96
442.00	447.04
443.00	450.94
444.00	447.82
445.00	442.36
446.00	442.36
447.00	425.20
448.00	419.74
449.00	401.79
450.00	404.91
451.00	426.76
452.00	425.20
453.00	444.70
454.00	439.24
455.00	461.09
456.00	462.65
457.00	458.75
458.00	437.68
459.00	443.14
460.00	425.20
461.00	447.82
462.00	436.12
463.00	458.75
464.00	433.00
465.00	453.28
466.00	445.48
467.00	445.48
468.00	425.20
469.00	408.03
470.00	397.11
471.00	395.55
472.00	418.18
473.00	422.86
474.00	416.62
475.00	398.67
476.00	403.35
477.00	408.81
478.00	416.62
479.00	415.84
480.00	413.49
481.00	419.74
482.00	429.88
483.00	425.98
484.00	416.62
485.00	418.96
486.00	415.06
487.00	426.76
488.00	422.86
489.00	433.78
490.00	429.10
491.00	452.50
492.00	447.04
493.00	457.18
494.00	453.28
495.00	457.96
496.00	453.28
497.00	429.10
498.00	446.26
499.00	431.44
500.00	475.91
501.00	431.44
502.00	426.76
503.00	362.78
504.00	395.55
505.00	393.99
506.00	429.88
507.00	415.84
508.00	433.00
509.00	433.78
510.00	453.28
511.00	454.84
512.00	440.02
513.00	419.74
514.00	422.86
515.00	429.88
516.00	434.56
517.00	433.00
518.00	435.34
519.00	433.00
520.00	425.98
521.00	416.62
522.00	415.06
523.00	404.13
524.00	404.91
525.00	439.24
526.00	433.78
527.00	436.90
528.00	401.01
529.00	411.93
530.00	408.03
531.00	411.93
532.00	408.03
533.00	411.93
534.00	426.76
535.00	417.40
536.00	422.86
537.00	401.79
538.00	421.30
539.00	418.96
540.00	427.54
541.00	436.90
542.00	429.88
543.00	450.16
544.00	425.20
545.00	402.57
546.00	378.39
547.00	384.63
548.00	426.76
549.00	444.70
550.00	447.82
551.00	428.32
552.00	411.15
553.00	418.96
554.00	442.36
555.00	464.21
556.00	467.33
557.00	443.14
558.00	436.12
559.00	433.78
560.00	434.56
561.00	422.86
562.00	415.84
563.00	406.47
564.00	405.69
565.00	411.15
566.00	420.52
567.00	438.46
568.00	454.84
569.00	443.92
570.00	433.00
571.00	414.27
572.00	442.36
573.00	449.38
574.00	451.72
575.00	439.24
576.00	422.86
577.00	415.84
578.00	402.57
579.00	408.03
580.00	425.98
581.00	421.30
582.00	419.74
583.00	412.71
584.00	443.92
585.00	466.55
586.00	460.31
587.00	471.23
588.00	449.38
589.00	462.65
590.00	429.10
591.00	440.02
592.00	436.90
593.00	446.26
594.00	436.12
595.00	434.56
596.00	439.24
597.00	450.16
598.00	458.75
599.00	466.55
600.00	478.25
601.00	439.24
602.00	419.74
603.00	379.17
604.00	397.89
605.00	394.77
606.00	410.37
607.00	434.56
608.00	460.31
609.00	479.03
610.00	459.53
611.00	433.00
612.00	434.56
613.00	441.58
614.00	443.14
615.00	436.90
616.00	422.08
617.00	425.98
618.00	412.71
619.00	433.00
620.00	442.36
621.00	430.66
622.00	397.89
623.00	376.83
624.00	434.56
625.00	443.92
626.00	472.01
627.00	424.42
628.00	444.70
629.00	464.21
630.00	472.01
631.00	466.55
632.00	450.94
633.00	463.43
634.00	474.35
635.00	471.23
636.00	460.31
637.00	425.20
638.00	414.27
639.00	425.98
640.00	472.01
641.00	479.81
642.00	472.79
643.00	430.66
644.00	411.93
645.00	394.77
646.00	407.25
647.00	429.10
648.00	418.96
649.00	395.55
650.00	390.09
651.00	393.99
652.00	433.00
653.00	398.67
654.00	452.50
655.00	437.68
656.00	462.65
657.00	405.69
658.00	400.23
659.00	415.84
660.00	440.02
661.00	443.92
662.00	437.68
663.00	442.36
664.00	441.58
665.00	450.16
666.00	450.94
667.00	450.94
668.00	433.78
669.00	429.10
670.00	413.49
671.00	390.09
672.00	371.36
673.00	368.24
674.00	389.31
675.00	407.25
676.00	415.06
677.00	409.59
678.00	392.43
679.00	413.49
680.00	422.86
681.00	417.40
682.00	403.35
683.00	397.11
684.00	441.58
685.00	438.46
686.00	450.16
687.00	404.91
688.00	407.25
689.00	408.81
690.00	451.72
691.00	460.31
692.00	456.40
693.00	422.86
694.00	404.13
695.00	404.91
696.00	429.10
697.00	431.44
698.00	406.47
699.00	401.79
700.00	450.94
701.00	482.15
702.00	465.77
703.00	422.08
704.00	399.45
705.00	423.64
706.00	411.93
707.00	428.32
708.00	404.91
709.00	429.10
710.00	432.22
711.00	436.12
712.00	415.84
713.00	429.10
714.00	425.98
715.00	441.58
716.00	430.66
717.00	439.24
718.00	471.23
719.00	479.03
720.00	461.09
721.00	419.74
722.00	411.15
723.00	440.02
724.00	450.94
725.00	448.60
726.00	425.20
727.00	426.76
728.00	403.35
729.00	423.64
730.00	429.10
731.00	439.24
732.00	422.86
733.00	431.44
734.00	464.99
735.00	517.26
736.00	548.47
737.00	527.40
738.00	491.51
739.00	460.31
740.00	469.67
741.00	465.77
742.00	476.69
743.00	496.19
744.00	513.36
745.00	494.63
746.00	486.05
747.00	464.21
748.00	470.45
749.00	454.06
750.00	455.62
751.00	449.38
752.00	471.23
753.00	474.35
754.00	483.71
755.00	467.33
756.00	493.07
757.00	466.55
758.00	462.65
759.00	423.64
760.00	463.43
761.00	461.09
762.00	481.37
763.00	455.62
764.00	458.75
765.00	453.28
766.00	441.58
767.00	425.98
768.00	420.52
769.00	428.32
770.00	421.30
771.00	451.72
772.00	472.01
773.00	488.39
774.00	464.21
775.00	441.58
776.00	440.02
777.00	430.66
778.00	450.94
779.00	472.79
780.00	519.60
781.00	568.75
782.00	602.30
783.00	650.67
784.00	612.44
785.00	574.99
786.00	498.53
787.00	439.24
788.00	426.76
789.00	403.35
790.00	428.32
791.00	404.91
792.00	402.57
793.00	397.11
794.00	418.18
795.00	442.36
796.00	436.90
797.00	476.69
798.00	473.57
799.00	520.38
800.00	479.81
801.00	451.72
802.00	426.76
803.00	405.69
804.00	422.08
805.00	425.98
806.00	429.88
807.00	421.30
808.00	422.08
809.00	447.82
810.00	451.72
811.00	434.56
812.00	434.56
813.00	440.80
814.00	446.26
815.00	411.93
816.00	398.67
817.00	405.69
818.00	422.86
819.00	409.59
820.00	417.40
821.00	444.70
822.00	491.51
823.00	505.56
824.00	501.65
825.00	504.00
826.00	494.63
827.00	483.71
828.00	476.69
829.00	452.50
830.00	479.81
831.00	451.72
832.00	476.69
833.00	455.62
834.00	485.27
835.00	484.49
836.00	483.71
837.00	485.27
838.00	460.31
839.00	466.55
840.00	458.74
841.00	485.27
842.00	471.23
843.00	482.15
844.00	454.84
845.00	462.65
846.00	458.75
847.00	475.91
848.00	474.35
849.00	454.06
850.00	453.28
851.00	440.02
852.00	418.96
853.00	394.77
854.00	404.91
855.00	404.91
856.00	398.67
857.00	398.67
858.00	434.56
859.00	452.50
860.00	479.03
861.00	473.57
862.00	479.81
863.00	413.49
864.00	403.35
865.00	412.71
866.00	446.26
867.00	449.38
868.00	427.54
869.00	428.32
870.00	408.03
871.00	432.22
872.00	426.76
873.00	463.43
874.00	435.34
875.00	452.50
876.00	439.24
877.00	457.18
878.00	457.18
879.00	447.04
880.00	458.74
881.00	461.09
882.00	448.60
883.00	443.14
884.00	425.98
885.00	456.40
886.00	451.72
887.00	432.22
888.00	427.54
889.00	458.75
890.00	486.05
891.00	478.25
892.00	429.10
893.00	415.06
894.00	376.05
895.00	394.77
896.00	411.93
897.00	452.50
898.00	459.53
899.00	462.65
900.00	457.18
901.00	468.11
902.00	470.45
903.00	518.04
904.00	602.30
905.00	710.74
906.00	793.44
907.00	795.78
908.00	747.41
909.00	968.98
910.00	980.68
911.00	1074.31
912.00	869.12
913.00	901.89
914.00	823.87
915.00	735.71
916.00	599.18
917.00	533.64
918.00	489.95
919.00	472.01
920.00	455.62
921.00	450.16
922.00	449.38
923.00	440.80
924.00	447.82
925.00	455.62
926.00	470.45
927.00	470.45
928.00	447.82
929.00	448.60
930.00	431.44
931.00	434.56
932.00	411.93
933.00	418.96
934.00	439.24
935.00	470.45
936.00	496.97
937.00	496.19
938.00	494.63
939.00	491.51
940.00	489.95
941.00	468.89
942.00	465.77
943.00	609.32
944.00	1099.27
945.00	1948.11
946.00	2961.56
947.00	3673.08
948.00	3718.33
949.00	3202.63
950.00	2362.38
951.00	1600.93
952.00	1039.20
953.00	699.82
954.00	578.11
955.00	521.16
956.00	521.94
957.00	487.61
958.00	478.25
959.00	457.96
960.00	468.89
961.00	453.28
962.00	453.28
963.00	428.32
964.00	443.92
965.00	473.57
966.00	511.02
967.00	514.14
968.00	496.19
969.00	457.96
970.00	457.96
971.00	439.24
972.00	457.96
973.00	421.30
974.00	413.49
975.00	403.35
976.00	398.67
977.00	412.71
978.00	433.78
979.00	448.60
980.00	431.44
981.00	412.71
982.00	432.22
983.00	446.26
984.00	435.34
985.00	427.54
986.00	431.44
987.00	425.98
988.00	407.25
989.00	408.81
990.00	440.02
991.00	461.09
992.00	436.12
993.00	418.18
994.00	411.15
995.00	437.68
996.00	453.28
997.00	473.57
998.00	482.15
999.00	488.39
1000.00	455.62
1001.00	446.26
1002.00	437.68
1003.00	466.55
1004.00	469.67
1005.00	479.81
1006.00	468.89
1007.00	496.19
1008.00	480.59
1009.00	499.31
1010.00	457.18
1011.00	443.92
1012.00	416.62
1013.00	420.52
1014.00	463.43
1015.00	469.67
1016.00	462.65
1017.00	426.76
1018.00	407.25
1019.00	416.62
1020.00	436.90
1021.00	447.04
1022.00	454.06
1023.00	442.36
1024.00	465.77
1025.00	451.72
1026.00	438.46
1027.00	437.68
1028.00	433.00
1029.00	443.92
1030.00	447.82
1031.00	468.11
1032.00	464.99
1033.00	443.14
1034.00	443.14
1035.00	454.06
1036.00	450.16
1037.00	429.88
1038.00	422.08
1039.00	430.66
1040.00	455.62
1041.00	482.15
1042.00	490.73
1043.00	501.65
1044.00	514.92
1045.00	537.54
1046.00	532.08
1047.00	507.12
1048.00	464.99
1049.00	451.72
1050.00	436.12
1051.00	450.94
1052.00	451.72
1053.00	453.28
1054.00	464.21
1055.00	468.11
1056.00	482.15
1057.00	472.79
1058.00	476.69
1059.00	450.94
1060.00	450.16
1061.00	436.12
1062.00	430.66
1063.00	412.71
1064.00	404.91
1065.00	437.68
1066.00	447.82
1067.00	467.33
1068.00	468.11
1069.00	474.35
1070.00	488.39
1071.00	466.55
1072.00	462.65
1073.00	443.14
1074.00	440.02
1075.00	418.96
1076.00	403.35
1077.00	445.48
1078.00	451.72
1079.00	482.93
1080.00	454.06
1081.00	460.31
1082.00	450.94
1083.00	429.10
1084.00	431.44
1085.00	425.20
1086.00	458.74
1087.00	469.67
1088.00	476.69
1089.00	463.43
1090.00	443.14
1091.00	440.02
1092.00	462.65
1093.00	498.53
1094.00	488.39
1095.00	445.48
1096.00	411.93
1097.00	428.32
1098.00	501.65
1099.00	556.27
1100.00	572.65
1101.00	570.31
1102.00	585.91
1103.00	592.94
1104.00	581.23
1105.00	562.51
1106.00	561.73
1107.00	526.62
1108.00	483.71
1109.00	449.38
1110.00	446.26
1111.00	436.90
1112.00	457.18
1113.00	484.49
1114.00	510.24
1115.00	495.41
1116.00	484.49
1117.00	476.69
1118.00	480.59
1119.00	496.19
1120.00	521.94
1121.00	531.30
1122.00	551.59
1123.00	549.25
1124.00	563.29
1125.00	522.72
1126.00	511.02
1127.00	486.05
1128.00	486.83
1129.00	472.01
1130.00	475.13
1131.00	462.65
1132.00	456.40
1133.00	447.82
1134.00	431.44
1135.00	444.70
1136.00	456.40
1137.00	504.00
1138.00	510.24
1139.00	527.40
1140.00	500.09
1141.00	487.61
1142.00	482.15
1143.00	482.93
1144.00	510.24
1145.00	493.85
1146.00	521.94
1147.00	499.31
1148.00	479.81
1149.00	462.65
1150.00	469.67
1151.00	495.41
1152.00	497.75
1153.00	496.19
1154.00	501.65
1155.00	556.27
1156.00	647.55
1157.00	739.61
1158.00	731.81
1159.00	686.56
1160.00	626.48
1161.00	587.47
1162.00	567.19
1163.00	610.10
1164.00	769.26
1165.00	1054.02
1166.00	1395.74
1167.00	1670.36
1168.00	1720.29
1169.00	1561.14
1170.00	1274.03
1171.00	1011.11
1172.00	807.48
1173.00	702.16
1174.00	635.07
1175.00	577.33
1176.00	528.18
1177.00	526.62
1178.00	567.97
1179.00	587.47
1180.00	596.06
1181.00	590.60
1182.00	632.72
1183.00	651.45
1184.00	657.69
1185.00	638.97
1186.00	624.92
1187.00	631.16
1188.00	678.76
1189.00	751.31
1190.00	819.19
1191.00	845.71
1192.00	871.46
1193.00	873.80
1194.00	879.26
1195.00	819.19
1196.00	812.17
1197.00	807.48
1198.00	902.67
1199.00	1039.98
1200.00	1255.31
1201.00	1444.11
1202.00	1551.00
1203.00	1543.97
1204.00	1433.19
1205.00	1305.24
1206.00	1188.99
1207.00	1126.58
1208.00	1135.16
1209.00	1146.08
1210.00	1185.09
1211.00	1224.10
1212.00	1309.92
1213.00	1455.81
1214.00	1668.80
1215.00	1934.06
1216.00	2493.45
1217.00	5736.65
1218.00	21232.56
1219.00	41980.63
1220.00	59927.08
1221.00	65535.00
1222.00	65535.00
1223.00	65535.00
1224.00	65535.00
1225.00	65318.89
1226.00	56249.31
1227.00	40627.80
1228.00	22054.87
1229.00	10767.24
1230.00	5467.49
1231.00	3098.87
1232.00	2180.60
1233.00	1795.19
1234.00	1669.58
1235.00	1656.32
1236.00	2182.16
1237.00	3797.91
1238.00	7119.91
1239.00	11563.81
1240.00	15261.07
1241.00	16331.48
1242.00	14576.86
1243.00	11182.30
1244.00	7708.16
1245.00	4812.14
1246.00	2838.29
1247.00	1743.70
1248.00	1180.41
1249.00	976.78
1250.00	944.80
1251.00	1001.75
1252.00	1110.97
1253.00	1144.52
1254.00	1217.08
1255.00	1228.78
1256.00	1224.88
1257.00	1141.40
1258.00	1048.56
1259.00	995.51
1260.00	951.04
1261.00	919.83
1262.00	876.14
1263.00	855.08
1264.00	818.41
1265.00	801.24
1266.00	800.46
1267.00	781.74
1268.00	770.04
1269.00	738.83
1270.00	719.32
1271.00	717.76
1272.00	716.98
1273.00	754.43
1274.00	824.65
1275.00	1228.78
1276.00	3016.95
1277.00	7282.19
1278.00	14775.02
1279.00	23072.22
1280.00	28621.63
1281.00	28634.89
1282.00	24375.90
1283.00	17938.65
1284.00	11753.39
1285.00	6749.32
1286.00	3701.95
1287.00	2131.45
1288.00	1361.41
1289.00	976.00
1290.00	862.10
1291.00	861.32
1292.00	922.95
1293.00	925.29
1294.00	889.40
1295.00	1060.26
1296.00	1703.91
1297.00	2997.45
1298.00	4706.04
1299.00	6240.65
1300.00	6815.64
1301.00	6341.29
1302.00	5127.33
1303.00	3765.14
1304.00	2530.12
1305.00	1658.66
1306.00	1195.23
1307.00	982.24
1308.00	874.58
1309.00	797.34
1310.00	738.83
1311.00	701.38
1312.00	633.50
1313.00	594.50
1314.00	568.75
1315.00	583.57
1316.00	567.19
1317.00	532.86
1318.00	523.50
1319.00	526.62
1320.00	535.98
1321.00	525.84
1322.00	532.08
1323.00	535.20
1324.00	553.15
1325.00	552.37
1326.00	564.07
1327.00	567.97
1328.00	586.69
1329.00	658.47
1330.00	1017.35
1331.00	1927.04
1332.00	3533.43
1333.00	5455.79
1334.00	7000.54
1335.00	7368.01
1336.00	6709.54
1337.00	5257.62
1338.00	3750.32
1339.00	2402.95
1340.00	1536.17
1341.00	1047.78
1342.00	804.36
1343.00	698.26
1344.00	657.69
1345.00	664.71
1346.00	620.24
1347.00	607.76
1348.00	586.69
1349.00	631.94
1350.00	681.10
1351.00	700.60
1352.00	713.08
1353.00	712.30
1354.00	727.91
1355.00	743.51
1356.00	795.78
