SpectraSuite Data File
++++++++++++++++++++++++++++++++++++
Date: Thu Nov 16 13:55:18 EST 2017
User: cheriyan
Dark Spectrum Present: No
Reference Spectrum Present: No
Number of Sampled Component Spectra: 1
Spectrometers: USB2+H05261
Integration Time (usec): 100000 (USB2+H05261)
Spectra Averaged: 1 (USB2+H05261)
Boxcar Smoothing: 1 (USB2+H05261)
Correct for Electrical Dark: No (USB2+H05261)
Strobe/Lamp Enabled: No (USB2+H05261)
Correct for Detector Non-linearity: No (USB2+H05261)
Correct for Stray Light: No (USB2+H05261)
Number of Pixels in Processed Spectrum: 2048
>>>>>Begin Processed Spectral Data<<<<<
0.00	367.46
1.00	367.46
2.00	319.87
3.00	288.67
4.00	262.92
5.00	255.12
6.00	258.24
7.00	237.17
8.00	251.22
9.00	247.32
10.00	248.10
11.00	227.81
12.00	213.77
13.00	212.21
14.00	231.71
15.00	241.86
16.00	255.90
17.00	272.28
18.00	251.22
19.00	241.86
20.00	228.59
21.00	252.00
22.00	280.08
23.00	276.96
24.00	315.19
25.00	322.21
26.00	363.56
27.00	355.76
28.00	365.12
29.00	371.36
30.00	373.71
31.00	385.41
32.00	399.45
33.00	403.35
34.00	406.47
35.00	394.77
36.00	394.77
37.00	379.17
38.00	383.85
39.00	378.39
40.00	391.65
41.00	394.77
42.00	398.67
43.00	397.11
44.00	390.87
45.00	411.15
46.00	415.06
47.00	433.78
48.00	433.00
49.00	421.30
50.00	393.99
51.00	384.63
52.00	400.23
53.00	411.15
54.00	397.89
55.00	386.19
56.00	404.13
57.00	432.22
58.00	435.34
59.00	424.42
60.00	391.65
61.00	393.99
62.00	362.78
63.00	390.09
64.00	398.67
65.00	443.14
66.00	429.10
67.00	416.62
68.00	398.67
69.00	397.11
70.00	419.74
71.00	407.25
72.00	396.33
73.00	360.44
74.00	390.09
75.00	407.25
76.00	417.40
77.00	393.21
78.00	391.65
79.00	403.35
80.00	429.10
81.00	446.26
82.00	411.15
83.00	386.97
84.00	362.78
85.00	409.59
86.00	414.27
87.00	437.68
88.00	423.64
89.00	424.42
90.00	408.81
91.00	415.06
92.00	416.62
93.00	393.99
94.00	369.80
95.00	337.04
96.00	367.46
97.00	372.15
98.00	397.89
99.00	387.75
100.00	388.53
101.00	394.77
102.00	383.85
103.00	400.23
104.00	398.67
105.00	421.30
106.00	415.84
107.00	425.98
108.00	406.47
109.00	417.40
110.00	415.84
111.00	430.66
112.00	421.30
113.00	422.08
114.00	410.37
115.00	411.93
116.00	388.53
117.00	408.81
118.00	386.19
119.00	397.89
120.00	386.97
121.00	405.69
122.00	423.64
123.00	431.44
124.00	450.16
125.00	429.10
126.00	433.78
127.00	404.91
128.00	407.25
129.00	385.41
130.00	383.07
131.00	382.29
132.00	401.01
133.00	409.59
134.00	414.27
135.00	398.67
136.00	399.45
137.00	394.77
138.00	395.55
139.00	398.67
140.00	401.79
141.00	389.31
142.00	411.15
143.00	458.75
144.00	504.78
145.00	518.04
146.00	512.58
147.00	507.90
148.00	502.43
149.00	466.55
150.00	444.70
151.00	422.86
152.00	433.00
153.00	462.65
154.00	486.83
155.00	470.45
156.00	425.98
157.00	414.27
158.00	432.22
159.00	431.44
160.00	411.15
161.00	383.85
162.00	395.55
163.00	387.75
164.00	376.05
165.00	378.39
166.00	381.51
167.00	411.93
168.00	410.37
169.00	429.10
170.00	418.18
171.00	423.64
172.00	395.55
173.00	405.69
174.00	412.71
175.00	433.78
176.00	429.10
177.00	433.00
178.00	408.03
179.00	389.31
180.00	387.75
181.00	411.15
182.00	424.42
183.00	387.75
184.00	380.73
185.00	377.61
186.00	420.52
187.00	430.66
188.00	448.60
189.00	429.10
190.00	425.98
191.00	440.80
192.00	464.21
193.00	476.69
194.00	496.19
195.00	528.18
196.00	570.31
197.00	578.11
198.00	548.47
199.00	494.63
200.00	464.99
201.00	445.48
202.00	440.80
203.00	429.88
204.00	456.40
205.00	447.82
206.00	433.00
207.00	398.67
208.00	414.27
209.00	422.86
210.00	440.80
211.00	436.90
212.00	440.02
213.00	404.13
214.00	377.61
215.00	369.02
216.00	378.39
217.00	381.51
218.00	390.09
219.00	369.80
220.00	385.41
221.00	361.22
222.00	393.21
223.00	426.76
224.00	444.70
225.00	455.62
226.00	411.15
227.00	398.67
228.00	376.83
229.00	398.67
230.00	379.17
231.00	388.53
232.00	407.25
233.00	429.10
234.00	442.36
235.00	417.40
236.00	411.93
237.00	384.63
238.00	367.46
239.00	365.90
240.00	388.53
241.00	405.69
242.00	425.98
243.00	430.66
244.00	430.66
245.00	421.30
246.00	385.41
247.00	382.29
248.00	389.31
249.00	413.49
250.00	419.74
251.00	436.90
252.00	440.80
253.00	457.96
254.00	470.45
255.00	503.22
256.00	476.69
257.00	462.65
258.00	418.96
259.00	434.56
260.00	414.27
261.00	403.35
262.00	401.01
263.00	393.21
264.00	412.71
265.00	441.58
266.00	496.19
267.00	546.91
268.00	534.42
269.00	515.70
270.00	516.48
271.00	568.75
272.00	628.82
273.00	625.70
274.00	608.54
275.00	589.03
276.00	599.18
277.00	599.96
278.00	575.77
279.00	551.59
280.00	548.47
281.00	518.82
282.00	491.51
283.00	450.16
284.00	443.14
285.00	437.68
286.00	415.84
287.00	400.23
288.00	383.07
289.00	407.25
290.00	402.57
291.00	424.42
292.00	418.96
293.00	428.32
294.00	411.93
295.00	407.25
296.00	416.62
297.00	421.30
298.00	414.27
299.00	411.93
300.00	422.08
301.00	435.34
302.00	442.36
303.00	445.48
304.00	424.42
305.00	427.54
306.00	459.53
307.00	543.78
308.00	631.16
309.00	672.51
310.00	652.23
311.00	615.56
312.00	564.85
313.00	536.76
314.00	483.71
315.00	483.71
316.00	454.06
317.00	453.28
318.00	416.62
319.00	429.10
320.00	426.76
321.00	429.10
322.00	398.67
323.00	383.07
324.00	374.49
325.00	393.99
326.00	408.03
327.00	425.98
328.00	437.68
329.00	436.12
330.00	422.08
331.00	422.86
332.00	416.62
333.00	440.80
334.00	422.08
335.00	423.64
336.00	423.64
337.00	418.18
338.00	422.86
339.00	392.43
340.00	429.88
341.00	448.60
342.00	473.57
343.00	440.80
344.00	438.46
345.00	447.04
346.00	498.53
347.00	546.12
348.00	637.41
349.00	694.36
350.00	713.86
351.00	639.75
352.00	581.23
353.00	535.98
354.00	530.52
355.00	513.36
356.00	496.19
357.00	454.06
358.00	429.10
359.00	417.40
360.00	428.32
361.00	429.10
362.00	412.71
363.00	414.27
364.00	411.93
365.00	403.35
366.00	409.59
367.00	422.08
368.00	468.11
369.00	451.72
370.00	456.40
371.00	429.10
372.00	427.54
373.00	413.49
374.00	405.69
375.00	394.77
376.00	394.77
377.00	387.75
378.00	378.39
379.00	372.15
380.00	376.05
381.00	425.20
382.00	408.03
383.00	400.23
384.00	379.95
385.00	404.13
386.00	410.37
387.00	420.52
388.00	425.20
389.00	443.14
390.00	408.81
391.00	404.91
392.00	414.27
393.00	422.08
394.00	438.46
395.00	409.59
396.00	435.34
397.00	422.08
398.00	422.86
399.00	401.79
400.00	412.71
401.00	428.32
402.00	429.88
403.00	407.25
404.00	408.81
405.00	419.74
406.00	425.98
407.00	386.97
408.00	377.61
409.00	382.29
410.00	407.25
411.00	401.01
412.00	395.55
413.00	381.51
414.00	401.79
415.00	397.11
416.00	422.08
417.00	413.49
418.00	434.56
419.00	439.24
420.00	425.20
421.00	414.27
422.00	404.91
423.00	411.15
424.00	396.33
425.00	420.52
426.00	422.08
427.00	440.80
428.00	416.62
429.00	419.74
430.00	428.32
431.00	412.71
432.00	433.78
433.00	418.18
434.00	420.52
435.00	416.62
436.00	419.74
437.00	430.66
438.00	431.44
439.00	452.50
440.00	452.50
441.00	472.01
442.00	449.38
443.00	433.78
444.00	426.76
445.00	428.32
446.00	428.32
447.00	401.01
448.00	410.37
449.00	422.08
450.00	416.62
451.00	414.27
452.00	443.92
453.00	471.23
454.00	447.82
455.00	404.13
456.00	397.11
457.00	411.15
458.00	421.30
459.00	403.35
460.00	393.99
461.00	394.77
462.00	419.74
463.00	432.22
464.00	431.44
465.00	425.20
466.00	427.54
467.00	426.76
468.00	437.68
469.00	430.66
470.00	419.74
471.00	405.69
472.00	410.37
473.00	442.36
474.00	447.82
475.00	437.68
476.00	441.58
477.00	454.06
478.00	460.31
479.00	431.44
480.00	404.13
481.00	415.84
482.00	412.71
483.00	419.74
484.00	422.08
485.00	433.78
486.00	426.76
487.00	419.74
488.00	427.54
489.00	441.58
490.00	411.15
491.00	416.62
492.00	415.06
493.00	427.54
494.00	428.32
495.00	434.56
496.00	446.26
497.00	429.10
498.00	410.37
499.00	406.47
500.00	417.40
501.00	427.54
502.00	450.16
503.00	445.48
504.00	418.96
505.00	403.35
506.00	420.52
507.00	426.76
508.00	407.25
509.00	383.85
510.00	376.83
511.00	391.65
512.00	398.67
513.00	430.66
514.00	415.84
515.00	411.93
516.00	397.11
517.00	432.22
518.00	445.48
519.00	422.08
520.00	424.42
521.00	420.52
522.00	440.02
523.00	418.96
524.00	415.84
525.00	428.32
526.00	428.32
527.00	413.49
528.00	410.37
529.00	411.93
530.00	411.93
531.00	429.10
532.00	439.24
533.00	457.18
534.00	445.48
535.00	430.66
536.00	422.86
537.00	441.58
538.00	443.14
539.00	457.18
540.00	412.71
541.00	406.47
542.00	397.11
543.00	421.30
544.00	446.26
545.00	434.56
546.00	422.08
547.00	406.47
548.00	421.30
549.00	428.32
550.00	432.22
551.00	427.54
552.00	448.60
553.00	458.75
554.00	462.65
555.00	461.87
556.00	467.33
557.00	472.01
558.00	431.44
559.00	408.03
560.00	412.71
561.00	421.30
562.00	434.56
563.00	448.60
564.00	468.89
565.00	447.04
566.00	426.76
567.00	430.66
568.00	442.36
569.00	434.56
570.00	423.64
571.00	426.76
572.00	416.62
573.00	405.69
574.00	419.74
575.00	437.68
576.00	443.14
577.00	434.56
578.00	431.44
579.00	451.72
580.00	457.18
581.00	447.82
582.00	459.53
583.00	465.77
584.00	473.57
585.00	483.71
586.00	459.53
587.00	433.00
588.00	376.05
589.00	378.39
590.00	411.93
591.00	433.78
592.00	463.43
593.00	449.38
594.00	442.36
595.00	414.27
596.00	427.54
597.00	422.86
598.00	406.47
599.00	409.59
600.00	421.30
601.00	433.78
602.00	427.54
603.00	412.71
604.00	429.88
605.00	437.68
606.00	454.06
607.00	446.26
608.00	440.02
609.00	435.34
610.00	422.86
611.00	429.10
612.00	434.56
613.00	438.46
614.00	418.18
615.00	406.47
616.00	412.71
617.00	436.90
618.00	436.12
619.00	435.34
620.00	408.03
621.00	432.22
622.00	415.06
623.00	418.18
624.00	415.06
625.00	411.93
626.00	436.90
627.00	417.40
628.00	437.68
629.00	444.70
630.00	441.58
631.00	429.88
632.00	370.58
633.00	367.46
634.00	376.83
635.00	407.25
636.00	418.96
637.00	389.31
638.00	411.93
639.00	433.78
640.00	440.02
641.00	424.42
642.00	405.69
643.00	432.22
644.00	434.56
645.00	429.10
646.00	420.52
647.00	444.70
648.00	439.24
649.00	461.09
650.00	441.58
651.00	436.90
652.00	429.10
653.00	398.67
654.00	461.09
655.00	456.40
656.00	471.23
657.00	433.00
658.00	443.92
659.00	456.40
660.00	440.80
661.00	408.03
662.00	415.06
663.00	404.13
664.00	425.20
665.00	415.84
666.00	426.76
667.00	411.93
668.00	412.71
669.00	401.79
670.00	420.52
671.00	437.68
672.00	450.16
673.00	456.40
674.00	425.20
675.00	409.59
676.00	390.87
677.00	398.67
678.00	413.49
679.00	431.44
680.00	463.43
681.00	480.59
682.00	475.91
683.00	437.68
684.00	429.88
685.00	418.96
686.00	425.20
687.00	390.87
688.00	387.75
689.00	399.45
690.00	429.88
691.00	422.08
692.00	418.18
693.00	414.27
694.00	433.00
695.00	436.12
696.00	418.96
697.00	390.09
698.00	379.17
699.00	399.45
700.00	440.80
701.00	458.75
702.00	468.11
703.00	430.66
704.00	408.81
705.00	405.69
706.00	436.12
707.00	433.78
708.00	441.58
709.00	446.26
710.00	451.72
711.00	433.00
712.00	412.71
713.00	418.18
714.00	433.00
715.00	437.68
716.00	431.44
717.00	421.30
718.00	464.99
719.00	470.45
720.00	458.74
721.00	399.45
722.00	408.03
723.00	417.40
724.00	419.74
725.00	422.86
726.00	423.64
727.00	443.14
728.00	419.74
729.00	436.12
730.00	458.74
731.00	486.05
732.00	485.27
733.00	467.33
734.00	468.89
735.00	461.87
736.00	486.05
737.00	493.85
738.00	511.80
739.00	475.13
740.00	454.06
741.00	463.43
742.00	482.93
743.00	493.07
744.00	466.55
745.00	453.28
746.00	443.14
747.00	436.90
748.00	441.58
749.00	448.60
750.00	443.14
751.00	421.30
752.00	429.88
753.00	438.46
754.00	454.06
755.00	438.46
756.00	436.12
757.00	441.58
758.00	471.23
759.00	479.81
760.00	493.07
761.00	475.13
762.00	458.75
763.00	439.24
764.00	440.02
765.00	452.50
766.00	444.70
767.00	421.30
768.00	417.40
769.00	409.59
770.00	416.62
771.00	420.52
772.00	444.70
773.00	450.16
774.00	454.84
775.00	440.80
776.00	437.68
777.00	410.37
778.00	417.40
779.00	440.80
780.00	505.56
781.00	550.81
782.00	550.03
783.00	608.54
784.00	585.13
785.00	563.29
786.00	456.40
787.00	431.44
788.00	444.70
789.00	431.44
790.00	436.90
791.00	408.03
792.00	429.88
793.00	420.52
794.00	436.12
795.00	412.71
796.00	441.58
797.00	442.36
798.00	468.89
799.00	468.89
800.00	480.59
801.00	495.41
802.00	490.73
803.00	490.73
804.00	468.11
805.00	461.87
806.00	457.96
807.00	449.38
808.00	433.78
809.00	411.93
810.00	429.88
811.00	418.18
812.00	431.44
813.00	424.42
814.00	438.46
815.00	433.00
816.00	434.56
817.00	438.46
818.00	430.66
819.00	423.64
820.00	433.00
821.00	478.25
822.00	510.24
823.00	524.28
824.00	494.63
825.00	472.79
826.00	429.10
827.00	430.66
828.00	427.54
829.00	447.82
830.00	466.55
831.00	482.15
832.00	504.00
833.00	500.09
834.00	477.47
835.00	478.25
836.00	452.50
837.00	479.03
838.00	466.55
839.00	462.65
840.00	429.88
841.00	434.56
842.00	444.70
843.00	463.43
844.00	464.99
845.00	453.28
846.00	435.34
847.00	415.06
848.00	413.49
849.00	439.24
850.00	437.68
851.00	433.00
852.00	375.27
853.00	378.39
854.00	365.90
855.00	403.35
856.00	402.57
857.00	428.32
858.00	441.58
859.00	443.92
860.00	442.36
861.00	434.56
862.00	441.58
863.00	446.26
864.00	421.30
865.00	416.62
866.00	417.40
867.00	437.68
868.00	437.68
869.00	442.36
870.00	453.28
871.00	425.98
872.00	419.74
873.00	400.23
874.00	434.56
875.00	432.22
876.00	430.66
877.00	415.06
878.00	408.81
879.00	394.77
880.00	404.13
881.00	413.49
882.00	431.44
883.00	436.12
884.00	434.56
885.00	452.50
886.00	457.18
887.00	453.28
888.00	427.54
889.00	416.62
890.00	415.84
891.00	440.02
892.00	444.70
893.00	446.26
894.00	442.36
895.00	433.00
896.00	422.08
897.00	425.98
898.00	436.90
899.00	463.43
900.00	455.62
901.00	473.57
902.00	481.37
903.00	550.03
904.00	651.45
905.00	767.70
906.00	819.19
907.00	782.52
908.00	725.57
909.00	971.32
910.00	1014.23
911.00	1066.50
912.00	864.44
913.00	884.72
914.00	855.08
915.00	734.15
916.00	635.85
917.00	564.07
918.00	536.76
919.00	511.80
920.00	484.49
921.00	472.01
922.00	437.68
923.00	444.70
924.00	433.78
925.00	446.26
926.00	432.22
927.00	450.94
928.00	425.98
929.00	446.26
930.00	431.44
931.00	457.96
932.00	455.62
933.00	450.16
934.00	439.24
935.00	446.26
936.00	464.99
937.00	461.87
938.00	444.70
939.00	447.82
940.00	461.09
941.00	485.27
942.00	499.31
943.00	667.05
944.00	1111.75
945.00	1946.55
946.00	2929.57
947.00	3676.20
948.00	3711.31
949.00	3202.63
950.00	2350.68
951.00	1621.99
952.00	1073.53
953.00	749.75
954.00	595.28
955.00	509.46
956.00	486.05
957.00	486.83
958.00	508.68
959.00	499.31
960.00	470.45
961.00	398.67
962.00	399.45
963.00	438.46
964.00	492.29
965.00	499.31
966.00	488.39
967.00	482.93
968.00	470.45
969.00	451.72
970.00	422.08
971.00	436.12
972.00	419.74
973.00	401.01
974.00	400.23
975.00	436.90
976.00	479.03
977.00	471.23
978.00	444.70
979.00	428.32
980.00	425.98
981.00	430.66
982.00	435.34
983.00	422.86
984.00	432.22
985.00	450.94
986.00	468.11
987.00	459.53
988.00	454.84
989.00	454.06
990.00	457.18
991.00	429.10
992.00	432.22
993.00	450.94
994.00	457.96
995.00	449.38
996.00	434.56
997.00	444.70
998.00	450.16
999.00	443.14
1000.00	447.04
1001.00	412.71
1002.00	437.68
1003.00	449.38
1004.00	496.19
1005.00	494.63
1006.00	480.59
1007.00	450.94
1008.00	432.22
1009.00	449.38
1010.00	480.59
1011.00	495.41
1012.00	472.01
1013.00	461.87
1014.00	436.12
1015.00	451.72
1016.00	446.26
1017.00	454.84
1018.00	443.14
1019.00	436.12
1020.00	423.64
1021.00	418.18
1022.00	393.21
1023.00	415.84
1024.00	426.76
1025.00	438.46
1026.00	421.30
1027.00	423.64
1028.00	430.66
1029.00	436.90
1030.00	411.15
1031.00	393.99
1032.00	404.91
1033.00	421.30
1034.00	442.36
1035.00	436.12
1036.00	440.02
1037.00	432.22
1038.00	448.60
1039.00	460.31
1040.00	511.02
1041.00	504.00
1042.00	509.46
1043.00	486.05
1044.00	496.19
1045.00	542.22
1046.00	515.70
1047.00	500.87
1048.00	450.16
1049.00	451.72
1050.00	473.57
1051.00	460.31
1052.00	476.69
1053.00	445.48
1054.00	433.78
1055.00	392.43
1056.00	397.89
1057.00	401.79
1058.00	436.90
1059.00	418.18
1060.00	425.20
1061.00	416.62
1062.00	423.64
1063.00	427.54
1064.00	450.16
1065.00	462.65
1066.00	441.58
1067.00	423.64
1068.00	412.71
1069.00	435.34
1070.00	446.26
1071.00	469.67
1072.00	468.89
1073.00	468.11
1074.00	461.09
1075.00	447.82
1076.00	455.62
1077.00	472.79
1078.00	467.33
1079.00	479.81
1080.00	464.21
1081.00	479.81
1082.00	447.82
1083.00	430.66
1084.00	422.08
1085.00	423.64
1086.00	434.56
1087.00	461.87
1088.00	468.89
1089.00	493.07
1090.00	471.23
1091.00	486.05
1092.00	469.67
1093.00	469.67
1094.00	470.45
1095.00	496.97
1096.00	511.02
1097.00	503.22
1098.00	494.63
1099.00	507.12
1100.00	533.64
1101.00	551.59
1102.00	581.23
1103.00	561.73
1104.00	517.26
1105.00	470.45
1106.00	451.72
1107.00	468.89
1108.00	478.25
1109.00	479.81
1110.00	473.57
1111.00	444.70
1112.00	466.55
1113.00	457.18
1114.00	475.13
1115.00	472.79
1116.00	473.57
1117.00	472.01
1118.00	457.18
1119.00	477.47
1120.00	514.14
1121.00	535.20
1122.00	580.45
1123.00	553.15
1124.00	533.64
1125.00	456.40
1126.00	417.40
1127.00	396.33
1128.00	410.37
1129.00	418.96
1130.00	453.28
1131.00	453.28
1132.00	467.33
1133.00	448.60
1134.00	433.78
1135.00	422.86
1136.00	454.84
1137.00	500.87
1138.00	553.93
1139.00	541.44
1140.00	528.96
1141.00	511.80
1142.00	499.31
1143.00	474.35
1144.00	480.59
1145.00	480.59
1146.00	499.31
1147.00	480.59
1148.00	484.49
1149.00	482.93
1150.00	468.89
1151.00	484.49
1152.00	496.97
1153.00	526.62
1154.00	563.29
1155.00	607.76
1156.00	674.07
1157.00	706.84
1158.00	702.94
1159.00	657.69
1160.00	589.81
1161.00	560.95
1162.00	547.69
1163.00	598.40
1164.00	736.49
1165.00	1012.67
1166.00	1355.95
1167.00	1623.55
1168.00	1679.72
1169.00	1551.78
1170.00	1280.27
1171.00	1059.48
1172.00	851.95
1173.00	718.54
1174.00	634.29
1175.00	618.68
1176.00	634.29
1177.00	612.44
1178.00	574.99
1179.00	578.89
1180.00	602.30
1181.00	628.04
1182.00	638.97
1183.00	639.75
1184.00	638.19
1185.00	627.26
1186.00	623.36
1187.00	631.94
1188.00	658.47
1189.00	711.52
1190.00	777.06
1191.00	845.71
1192.00	883.16
1193.00	869.12
1194.00	835.57
1195.00	815.29
1196.00	819.19
1197.00	813.73
1198.00	861.32
1199.00	980.68
1200.00	1185.87
1201.00	1384.82
1202.00	1526.03
1203.00	1533.05
1204.00	1442.55
1205.00	1344.25
1206.00	1242.04
1207.00	1179.63
1208.00	1117.22
1209.00	1132.04
1210.00	1184.31
1211.00	1245.95
1212.00	1332.54
1213.00	1488.58
1214.00	1697.67
1215.00	2029.24
1216.00	2547.28
1217.00	5774.10
1218.00	21120.21
1219.00	41868.28
1220.00	59843.60
1221.00	65535.00
1222.00	65535.00
1223.00	65535.00
1224.00	65535.00
1225.00	65356.34
1226.00	56209.53
1227.00	40563.04
1228.00	21903.51
1229.00	10770.37
1230.00	5512.74
1231.00	3230.72
1232.00	2264.08
1233.00	1877.89
1234.00	1692.99
1235.00	1636.03
1236.00	2108.04
1237.00	3699.61
1238.00	7101.97
1239.00	11579.41
1240.00	15308.66
1241.00	16325.24
1242.00	14654.09
1243.00	11349.26
1244.00	7792.42
1245.00	4788.74
1246.00	2769.63
1247.00	1768.66
1248.00	1249.07
1249.00	1002.53
1250.00	922.95
1251.00	985.37
1252.00	1086.01
1253.00	1201.48
1254.00	1201.48
1255.00	1242.04
1256.00	1177.29
1257.00	1125.02
1258.00	991.61
1259.00	924.51
1260.00	881.60
1261.00	854.30
1262.00	832.45
1263.00	812.17
1264.00	819.19
1265.00	791.88
1266.00	778.62
1267.00	759.89
1268.00	777.06
1269.00	810.61
1270.00	793.44
1271.00	772.38
1272.00	770.04
1273.00	803.58
1274.00	849.61
1275.00	1226.44
1276.00	3017.73
1277.00	7268.14
1278.00	14576.08
1279.00	22900.58
1280.00	28531.91
1281.00	28910.30
1282.00	24537.40
1283.00	18065.82
1284.00	11713.60
1285.00	6810.96
1286.00	3708.19
1287.00	2113.50
1288.00	1334.11
1289.00	1005.65
1290.00	879.26
1291.00	821.53
1292.00	827.77
1293.00	850.39
1294.00	901.11
1295.00	1105.51
1296.00	1755.40
1297.00	3019.29
1298.00	4716.96
1299.00	6197.74
1300.00	6774.29
1301.00	6251.57
1302.00	5071.94
1303.00	3639.53
1304.00	2436.50
1305.00	1578.30
1306.00	1185.09
1307.00	1007.99
1308.00	915.93
1309.00	820.75
1310.00	788.76
1311.00	738.05
1312.00	688.12
1313.00	656.13
1314.00	613.22
1315.00	621.80
1316.00	621.02
1317.00	626.48
1318.00	610.10
1319.00	579.67
1320.00	550.03
1321.00	564.85
1322.00	560.95
1323.00	573.43
1324.00	545.34
1325.00	535.98
1326.00	561.73
1327.00	582.79
1328.00	613.22
1329.00	659.25
1330.00	1011.89
1331.00	1927.04
1332.00	3565.42
1333.00	5553.31
1334.00	7119.91
1335.00	7493.62
1336.00	6732.16
1337.00	5272.45
1338.00	3736.28
1339.00	2424.01
1340.00	1500.28
1341.00	1041.54
1342.00	801.24
1343.00	684.22
1344.00	607.76
1345.00	604.64
1346.00	647.55
1347.00	656.13
1348.00	656.13
1349.00	646.77
1350.00	658.47
1351.00	661.59
1352.00	653.79
1353.00	653.01
1354.00	716.98
1355.00	772.38
1356.00	802.80
