SpectraSuite Data File
++++++++++++++++++++++++++++++++++++
Date: Thu Nov 16 13:55:14 EST 2017
User: cheriyan
Dark Spectrum Present: No
Reference Spectrum Present: No
Number of Sampled Component Spectra: 1
Spectrometers: USB2+H05261
Integration Time (usec): 100000 (USB2+H05261)
Spectra Averaged: 1 (USB2+H05261)
Boxcar Smoothing: 1 (USB2+H05261)
Correct for Electrical Dark: No (USB2+H05261)
Strobe/Lamp Enabled: No (USB2+H05261)
Correct for Detector Non-linearity: No (USB2+H05261)
Correct for Stray Light: No (USB2+H05261)
Number of Pixels in Processed Spectrum: 2048
>>>>>Begin Processed Spectral Data<<<<<
0.00	440.02
1.00	440.02
2.00	389.31
3.00	333.14
4.00	269.16
5.00	243.42
6.00	227.81
7.00	227.81
8.00	237.95
9.00	252.00
10.00	254.34
11.00	262.92
12.00	286.33
13.00	272.28
14.00	265.26
15.00	253.56
16.00	261.36
17.00	280.08
18.00	269.94
19.00	284.77
20.00	287.11
21.00	305.83
22.00	311.29
23.00	315.19
24.00	305.05
25.00	322.99
26.00	326.89
27.00	369.02
28.00	357.32
29.00	366.68
30.00	337.04
31.00	382.29
32.00	389.31
33.00	418.18
34.00	385.41
35.00	393.99
36.00	404.91
37.00	415.84
38.00	429.88
39.00	409.59
40.00	418.18
41.00	415.06
42.00	440.80
43.00	461.87
44.00	440.80
45.00	413.49
46.00	383.07
47.00	420.52
48.00	431.44
49.00	438.46
50.00	407.25
51.00	401.79
52.00	433.78
53.00	443.14
54.00	441.58
55.00	415.06
56.00	420.52
57.00	454.84
58.00	468.11
59.00	443.92
60.00	410.37
61.00	392.43
62.00	404.91
63.00	418.18
64.00	406.47
65.00	424.42
66.00	408.81
67.00	406.47
68.00	387.75
69.00	378.39
70.00	406.47
71.00	408.03
72.00	408.81
73.00	383.07
74.00	359.66
75.00	369.80
76.00	371.36
77.00	378.39
78.00	357.32
79.00	383.85
80.00	400.23
81.00	430.66
82.00	408.03
83.00	404.13
84.00	395.55
85.00	388.53
86.00	370.58
87.00	389.31
88.00	426.76
89.00	440.80
90.00	422.86
91.00	425.98
92.00	426.76
93.00	435.34
94.00	407.25
95.00	396.33
96.00	398.67
97.00	393.21
98.00	417.40
99.00	422.86
100.00	412.71
101.00	391.65
102.00	374.49
103.00	389.31
104.00	388.53
105.00	400.23
106.00	389.31
107.00	393.99
108.00	372.15
109.00	399.45
110.00	415.06
111.00	441.58
112.00	408.81
113.00	419.74
114.00	395.55
115.00	409.59
116.00	386.97
117.00	406.47
118.00	404.91
119.00	413.49
120.00	411.15
121.00	394.77
122.00	388.53
123.00	379.17
124.00	386.19
125.00	399.45
126.00	395.55
127.00	424.42
128.00	415.84
129.00	420.52
130.00	380.73
131.00	398.67
132.00	424.42
133.00	461.87
134.00	440.80
135.00	429.10
136.00	437.68
137.00	443.14
138.00	433.78
139.00	422.08
140.00	403.35
141.00	401.79
142.00	403.35
143.00	426.76
144.00	436.90
145.00	446.26
146.00	465.77
147.00	465.77
148.00	472.79
149.00	459.53
150.00	440.02
151.00	412.71
152.00	403.35
153.00	410.37
154.00	442.36
155.00	451.72
156.00	462.65
157.00	454.84
158.00	439.24
159.00	477.47
160.00	463.43
161.00	475.91
162.00	434.56
163.00	418.18
164.00	416.62
165.00	396.33
166.00	418.18
167.00	401.01
168.00	398.67
169.00	384.63
170.00	372.15
171.00	389.31
172.00	369.80
173.00	386.97
174.00	376.05
175.00	400.23
176.00	419.74
177.00	434.56
178.00	439.24
179.00	416.62
180.00	407.25
181.00	397.89
182.00	411.93
183.00	408.03
184.00	418.18
185.00	394.77
186.00	415.06
187.00	402.57
188.00	401.79
189.00	397.89
190.00	377.61
191.00	408.03
192.00	415.84
193.00	461.09
194.00	490.73
195.00	517.26
196.00	543.78
197.00	516.48
198.00	511.80
199.00	500.87
200.00	493.85
201.00	456.40
202.00	401.01
203.00	424.42
204.00	429.10
205.00	438.46
206.00	390.09
207.00	386.97
208.00	397.11
209.00	449.38
210.00	453.28
211.00	455.62
212.00	425.98
213.00	429.10
214.00	406.47
215.00	411.15
216.00	415.84
217.00	454.84
218.00	440.80
219.00	425.98
220.00	437.68
221.00	437.68
222.00	450.16
223.00	412.71
224.00	400.23
225.00	386.19
226.00	386.97
227.00	408.81
228.00	383.85
229.00	395.55
230.00	384.63
231.00	430.66
232.00	415.84
233.00	427.54
234.00	418.96
235.00	429.88
236.00	421.30
237.00	400.23
238.00	386.19
239.00	366.68
240.00	373.71
241.00	395.55
242.00	412.71
243.00	418.96
244.00	434.56
245.00	427.54
246.00	445.48
247.00	444.70
248.00	469.67
249.00	468.11
250.00	436.90
251.00	407.25
252.00	386.97
253.00	401.79
254.00	431.44
255.00	475.91
256.00	491.51
257.00	449.38
258.00	412.71
259.00	390.09
260.00	428.32
261.00	402.57
262.00	404.13
263.00	410.37
264.00	433.78
265.00	436.90
266.00	476.69
267.00	553.93
268.00	592.16
269.00	569.53
270.00	572.65
271.00	600.74
272.00	629.60
273.00	614.78
274.00	606.98
275.00	616.34
276.00	602.30
277.00	587.47
278.00	550.81
279.00	526.62
280.00	506.34
281.00	483.71
282.00	461.87
283.00	452.50
284.00	426.76
285.00	397.89
286.00	390.87
287.00	417.40
288.00	450.94
289.00	450.16
290.00	447.04
291.00	427.54
292.00	433.00
293.00	397.11
294.00	392.43
295.00	360.44
296.00	382.29
297.00	410.37
298.00	437.68
299.00	465.77
300.00	459.53
301.00	445.48
302.00	411.93
303.00	432.22
304.00	434.56
305.00	470.45
306.00	484.49
307.00	561.73
308.00	617.12
309.00	645.99
310.00	610.10
311.00	591.38
312.00	549.25
313.00	516.48
314.00	448.60
315.00	429.88
316.00	439.24
317.00	470.45
318.00	472.79
319.00	440.80
320.00	433.78
321.00	408.81
322.00	429.88
323.00	415.06
324.00	421.30
325.00	421.30
326.00	390.87
327.00	417.40
328.00	397.11
329.00	422.86
330.00	422.08
331.00	432.22
332.00	439.24
333.00	415.06
334.00	406.47
335.00	393.99
336.00	402.57
337.00	405.69
338.00	406.47
339.00	392.43
340.00	420.52
341.00	429.88
342.00	420.52
343.00	425.20
344.00	417.40
345.00	457.18
346.00	489.95
347.00	614.78
348.00	717.76
349.00	751.31
350.00	724.79
351.00	632.72
352.00	592.94
353.00	553.15
354.00	537.54
355.00	512.58
356.00	484.49
357.00	481.37
358.00	455.62
359.00	450.16
360.00	457.96
361.00	460.31
362.00	454.84
363.00	428.32
364.00	429.88
365.00	431.44
366.00	412.71
367.00	382.29
368.00	402.57
369.00	423.64
370.00	454.84
371.00	425.98
372.00	434.56
373.00	434.56
374.00	423.64
375.00	400.23
376.00	411.93
377.00	418.96
378.00	415.84
379.00	392.43
380.00	403.35
381.00	412.71
382.00	419.74
383.00	391.65
384.00	390.09
385.00	388.53
386.00	411.15
387.00	407.25
388.00	431.44
389.00	440.02
390.00	456.40
391.00	425.98
392.00	386.19
393.00	379.95
394.00	398.67
395.00	415.06
396.00	415.84
397.00	413.49
398.00	411.93
399.00	426.76
400.00	410.37
401.00	415.84
402.00	417.40
403.00	418.18
404.00	420.52
405.00	409.59
406.00	429.88
407.00	435.34
408.00	434.56
409.00	437.68
410.00	431.44
411.00	420.52
412.00	399.45
413.00	401.01
414.00	426.76
415.00	422.08
416.00	425.98
417.00	418.18
418.00	424.42
419.00	433.78
420.00	411.15
421.00	406.47
422.00	411.93
423.00	426.76
424.00	428.32
425.00	418.96
426.00	443.14
427.00	457.18
428.00	478.25
429.00	467.33
430.00	482.15
431.00	467.33
432.00	455.62
433.00	433.78
434.00	436.12
435.00	450.94
436.00	459.53
437.00	451.72
438.00	432.22
439.00	440.02
440.00	435.34
441.00	439.24
442.00	433.00
443.00	461.09
444.00	462.65
445.00	456.40
446.00	446.26
447.00	425.20
448.00	431.44
449.00	418.18
450.00	440.80
451.00	446.26
452.00	440.80
453.00	419.74
454.00	392.43
455.00	395.55
456.00	444.70
457.00	456.40
458.00	454.06
459.00	419.74
460.00	431.44
461.00	412.71
462.00	420.52
463.00	391.65
464.00	413.49
465.00	416.62
466.00	437.68
467.00	435.34
468.00	432.22
469.00	422.86
470.00	408.03
471.00	429.88
472.00	426.76
473.00	428.32
474.00	390.87
475.00	400.23
476.00	411.93
477.00	417.40
478.00	427.54
479.00	411.93
480.00	411.15
481.00	400.23
482.00	414.27
483.00	415.06
484.00	443.14
485.00	452.50
486.00	456.40
487.00	418.96
488.00	397.89
489.00	409.59
490.00	431.44
491.00	436.90
492.00	441.58
493.00	422.86
494.00	425.98
495.00	397.89
496.00	388.53
497.00	395.55
498.00	403.35
499.00	408.81
500.00	414.27
501.00	416.62
502.00	429.10
503.00	415.84
504.00	417.40
505.00	416.62
506.00	437.68
507.00	439.24
508.00	436.12
509.00	411.15
510.00	400.23
511.00	408.03
512.00	417.40
513.00	441.58
514.00	420.52
515.00	415.06
516.00	385.41
517.00	406.47
518.00	394.77
519.00	411.93
520.00	399.45
521.00	404.13
522.00	400.23
523.00	393.21
524.00	404.91
525.00	426.76
526.00	447.82
527.00	448.60
528.00	409.59
529.00	387.75
530.00	376.05
531.00	393.21
532.00	419.74
533.00	408.03
534.00	440.02
535.00	438.46
536.00	471.23
537.00	447.82
538.00	433.78
539.00	408.81
540.00	409.59
541.00	436.90
542.00	457.18
543.00	473.57
544.00	440.80
545.00	432.22
546.00	436.90
547.00	452.50
548.00	444.70
549.00	436.90
550.00	433.78
551.00	436.90
552.00	428.32
553.00	449.38
554.00	461.09
555.00	461.09
556.00	460.31
557.00	458.75
558.00	423.64
559.00	404.91
560.00	401.01
561.00	426.76
562.00	416.62
563.00	416.62
564.00	414.27
565.00	412.71
566.00	414.27
567.00	415.84
568.00	408.81
569.00	396.33
570.00	411.15
571.00	438.46
572.00	448.60
573.00	449.38
574.00	462.65
575.00	492.29
576.00	476.69
577.00	436.90
578.00	425.20
579.00	428.32
580.00	439.24
581.00	433.00
582.00	448.60
583.00	432.22
584.00	435.34
585.00	448.60
586.00	476.69
587.00	442.36
588.00	393.99
589.00	394.77
590.00	399.45
591.00	415.84
592.00	388.53
593.00	393.21
594.00	390.09
595.00	406.47
596.00	443.14
597.00	461.87
598.00	475.91
599.00	443.92
600.00	436.12
601.00	407.25
602.00	420.52
603.00	399.45
604.00	409.59
605.00	414.27
606.00	450.94
607.00	436.12
608.00	433.00
609.00	411.93
610.00	420.52
611.00	404.13
612.00	392.43
613.00	421.30
614.00	443.92
615.00	479.03
616.00	465.77
617.00	472.79
618.00	425.20
619.00	424.42
620.00	404.91
621.00	436.90
622.00	415.84
623.00	429.88
624.00	414.27
625.00	443.14
626.00	463.43
627.00	475.91
628.00	461.09
629.00	422.08
630.00	419.74
631.00	440.02
632.00	462.65
633.00	441.58
634.00	413.49
635.00	376.83
636.00	428.32
637.00	443.14
638.00	447.82
639.00	454.84
640.00	447.82
641.00	454.06
642.00	419.74
643.00	414.27
644.00	415.06
645.00	399.45
646.00	404.91
647.00	418.96
648.00	432.22
649.00	425.98
650.00	437.68
651.00	453.28
652.00	472.01
653.00	450.16
654.00	475.13
655.00	506.34
656.00	514.92
657.00	435.34
658.00	404.91
659.00	382.29
660.00	430.66
661.00	431.44
662.00	463.43
663.00	452.50
664.00	436.12
665.00	437.68
666.00	427.54
667.00	423.64
668.00	422.86
669.00	444.70
670.00	472.01
671.00	469.67
672.00	445.48
673.00	415.84
674.00	398.67
675.00	378.39
676.00	386.97
677.00	391.65
678.00	425.98
679.00	418.96
680.00	411.93
681.00	406.47
682.00	403.35
683.00	416.62
684.00	425.98
685.00	453.28
686.00	422.86
687.00	404.91
688.00	375.27
689.00	386.19
690.00	389.31
691.00	429.88
692.00	451.72
693.00	454.06
694.00	422.86
695.00	427.54
696.00	429.88
697.00	433.78
698.00	410.37
699.00	428.32
700.00	436.90
701.00	453.28
702.00	440.02
703.00	428.32
704.00	425.98
705.00	427.54
706.00	437.68
707.00	435.34
708.00	424.42
709.00	418.96
710.00	408.03
711.00	420.52
712.00	440.02
713.00	437.68
714.00	425.20
715.00	411.15
716.00	436.90
717.00	454.06
718.00	518.04
719.00	518.04
720.00	504.00
721.00	425.20
722.00	405.69
723.00	409.59
724.00	404.13
725.00	410.37
726.00	408.03
727.00	428.32
728.00	412.71
729.00	434.56
730.00	436.90
731.00	443.92
732.00	422.86
733.00	431.44
734.00	458.74
735.00	491.51
736.00	493.85
737.00	490.73
738.00	489.95
739.00	506.34
740.00	499.31
741.00	501.65
742.00	470.45
743.00	463.43
744.00	425.98
745.00	418.96
746.00	425.20
747.00	450.16
748.00	461.87
749.00	455.62
750.00	443.92
751.00	447.04
752.00	449.38
753.00	468.89
754.00	466.55
755.00	465.77
756.00	441.58
757.00	446.26
758.00	457.96
759.00	474.35
760.00	506.34
761.00	502.44
762.00	513.36
763.00	482.15
764.00	485.27
765.00	447.04
766.00	429.10
767.00	407.25
768.00	427.54
769.00	432.22
770.00	438.46
771.00	444.70
772.00	464.21
773.00	480.59
774.00	459.53
775.00	459.53
776.00	440.02
777.00	429.10
778.00	406.47
779.00	468.89
780.00	514.14
781.00	549.25
782.00	539.88
783.00	587.47
784.00	596.84
785.00	528.18
786.00	465.77
787.00	408.03
788.00	420.52
789.00	410.37
790.00	460.31
791.00	478.25
792.00	475.13
793.00	441.58
794.00	418.96
795.00	403.35
796.00	415.06
797.00	436.90
798.00	472.01
799.00	457.96
800.00	447.82
801.00	442.36
802.00	457.96
803.00	481.37
804.00	468.89
805.00	455.62
806.00	411.93
807.00	417.40
808.00	431.44
809.00	461.09
810.00	442.36
811.00	418.18
812.00	418.96
813.00	418.96
814.00	431.44
815.00	402.57
816.00	420.52
817.00	422.86
818.00	443.92
819.00	439.24
820.00	447.04
821.00	474.35
822.00	478.25
823.00	514.92
824.00	509.46
825.00	511.80
826.00	493.07
827.00	473.57
828.00	480.59
829.00	477.47
830.00	515.70
831.00	513.36
832.00	486.83
833.00	468.89
834.00	464.21
835.00	453.28
836.00	428.32
837.00	418.96
838.00	428.32
839.00	420.52
840.00	429.88
841.00	440.80
842.00	461.09
843.00	464.21
844.00	469.67
845.00	457.18
846.00	433.78
847.00	418.96
848.00	432.22
849.00	458.74
850.00	472.79
851.00	447.04
852.00	413.49
853.00	401.01
854.00	430.66
855.00	454.06
856.00	435.34
857.00	418.18
858.00	432.22
859.00	450.16
860.00	452.50
861.00	426.76
862.00	436.12
863.00	448.60
864.00	456.40
865.00	448.60
866.00	448.60
867.00	431.44
868.00	410.37
869.00	408.03
870.00	433.00
871.00	450.94
872.00	426.76
873.00	415.84
874.00	400.23
875.00	390.09
876.00	396.33
877.00	439.24
878.00	462.65
879.00	468.11
880.00	431.44
881.00	447.82
882.00	422.86
883.00	448.60
884.00	437.68
885.00	432.22
886.00	453.28
887.00	462.65
888.00	488.39
889.00	477.47
890.00	478.25
891.00	479.03
892.00	468.89
893.00	430.66
894.00	434.56
895.00	434.56
896.00	493.85
897.00	494.63
898.00	479.03
899.00	424.42
900.00	417.40
901.00	432.22
902.00	457.96
903.00	524.28
904.00	606.20
905.00	779.40
906.00	816.85
907.00	818.41
908.00	728.69
909.00	992.39
910.00	1020.47
911.00	1073.53
912.00	848.05
913.00	891.74
914.00	829.33
915.00	760.67
916.00	638.97
917.00	590.60
918.00	531.30
919.00	519.60
920.00	461.09
921.00	452.50
922.00	415.84
923.00	413.49
924.00	410.37
925.00	412.71
926.00	440.02
927.00	419.74
928.00	408.03
929.00	423.64
930.00	453.28
931.00	461.87
932.00	450.94
933.00	437.68
934.00	433.78
935.00	446.26
936.00	443.92
937.00	444.70
938.00	415.84
939.00	410.37
940.00	419.74
941.00	447.04
942.00	493.85
943.00	631.16
944.00	1092.25
945.00	1916.90
946.00	2970.92
947.00	3648.90
948.00	3722.23
949.00	3165.18
950.00	2373.30
951.00	1621.99
952.00	1056.36
953.00	721.67
954.00	560.17
955.00	512.58
956.00	482.93
957.00	477.47
958.00	486.83
959.00	489.17
960.00	486.05
961.00	460.31
962.00	457.96
963.00	445.48
964.00	435.34
965.00	432.22
966.00	432.22
967.00	423.64
968.00	441.58
969.00	442.36
970.00	454.84
971.00	429.88
972.00	433.00
973.00	430.66
974.00	438.46
975.00	455.62
976.00	466.55
977.00	472.79
978.00	434.56
979.00	429.10
980.00	425.98
981.00	454.84
982.00	443.14
983.00	443.92
984.00	428.32
985.00	433.00
986.00	418.18
987.00	420.52
988.00	439.24
989.00	445.48
990.00	461.87
991.00	440.02
992.00	457.18
993.00	422.86
994.00	424.42
995.00	409.59
996.00	453.28
997.00	463.43
998.00	455.62
999.00	450.94
1000.00	449.38
1001.00	480.59
1002.00	472.01
1003.00	486.83
1004.00	488.39
1005.00	464.99
1006.00	434.56
1007.00	414.27
1008.00	430.66
1009.00	467.33
1010.00	500.87
1011.00	493.85
1012.00	464.21
1013.00	426.76
1014.00	442.36
1015.00	451.72
1016.00	452.50
1017.00	432.22
1018.00	413.49
1019.00	422.08
1020.00	424.42
1021.00	445.48
1022.00	418.96
1023.00	418.18
1024.00	386.19
1025.00	400.23
1026.00	411.93
1027.00	430.66
1028.00	440.80
1029.00	414.27
1030.00	407.25
1031.00	401.79
1032.00	406.47
1033.00	434.56
1034.00	452.50
1035.00	461.09
1036.00	447.82
1037.00	444.70
1038.00	447.82
1039.00	440.02
1040.00	443.14
1041.00	485.27
1042.00	527.40
1043.00	531.30
1044.00	514.92
1045.00	550.81
1046.00	551.59
1047.00	550.03
1048.00	493.85
1049.00	470.45
1050.00	445.48
1051.00	454.84
1052.00	475.91
1053.00	482.93
1054.00	479.03
1055.00	475.13
1056.00	475.13
1057.00	456.40
1058.00	450.16
1059.00	433.00
1060.00	426.76
1061.00	414.27
1062.00	451.72
1063.00	474.35
1064.00	470.45
1065.00	450.16
1066.00	424.42
1067.00	456.40
1068.00	441.58
1069.00	457.96
1070.00	447.82
1071.00	461.87
1072.00	464.21
1073.00	461.09
1074.00	472.79
1075.00	461.09
1076.00	468.11
1077.00	458.75
1078.00	472.79
1079.00	486.05
1080.00	462.65
1081.00	439.24
1082.00	429.10
1083.00	448.60
1084.00	464.99
1085.00	441.58
1086.00	457.18
1087.00	475.13
1088.00	473.57
1089.00	486.83
1090.00	482.15
1091.00	481.37
1092.00	489.17
1093.00	486.05
1094.00	525.84
1095.00	492.29
1096.00	469.67
1097.00	472.01
1098.00	486.05
1099.00	532.08
1100.00	565.63
1101.00	604.64
1102.00	599.96
1103.00	569.53
1104.00	544.56
1105.00	507.12
1106.00	478.25
1107.00	451.72
1108.00	444.70
1109.00	424.42
1110.00	399.45
1111.00	408.81
1112.00	424.42
1113.00	460.31
1114.00	460.31
1115.00	461.87
1116.00	444.70
1117.00	442.36
1118.00	436.90
1119.00	457.18
1120.00	507.12
1121.00	510.24
1122.00	518.04
1123.00	492.29
1124.00	492.29
1125.00	472.01
1126.00	440.80
1127.00	437.68
1128.00	422.08
1129.00	435.34
1130.00	474.35
1131.00	488.39
1132.00	512.58
1133.00	475.13
1134.00	466.55
1135.00	439.24
1136.00	462.65
1137.00	487.61
1138.00	509.46
1139.00	517.26
1140.00	509.46
1141.00	511.80
1142.00	496.97
1143.00	476.69
1144.00	450.16
1145.00	425.98
1146.00	461.87
1147.00	478.25
1148.00	505.56
1149.00	464.99
1150.00	477.47
1151.00	470.45
1152.00	512.58
1153.00	494.63
1154.00	500.09
1155.00	545.34
1156.00	664.71
1157.00	760.67
1158.00	775.50
1159.00	716.20
1160.00	680.32
1161.00	635.07
1162.00	614.00
1163.00	621.80
1164.00	759.11
1165.00	1007.99
1166.00	1339.57
1167.00	1600.15
1168.00	1678.94
1169.00	1517.45
1170.00	1242.82
1171.00	983.03
1172.00	834.79
1173.00	738.05
1174.00	668.61
1175.00	610.10
1176.00	587.47
1177.00	585.13
1178.00	572.65
1179.00	567.97
1180.00	564.85
1181.00	585.13
1182.00	583.57
1183.00	603.86
1184.00	585.13
1185.00	621.02
1186.00	630.38
1187.00	655.35
1188.00	648.33
1189.00	718.54
1190.00	809.83
1191.00	917.49
1192.00	936.21
1193.00	929.97
1194.00	893.30
1195.00	876.14
1196.00	830.89
1197.00	795.78
1198.00	840.25
1199.00	983.02
1200.00	1199.13
1201.00	1377.80
1202.00	1493.26
1203.00	1533.05
1204.00	1462.05
1205.00	1377.02
1206.00	1234.24
1207.00	1171.83
1208.00	1097.71
1209.00	1111.75
1210.00	1139.06
1211.00	1222.54
1212.00	1324.74
1213.00	1481.56
1214.00	1688.31
1215.00	1980.09
1216.00	2511.39
1217.00	5776.44
1218.00	21262.21
1219.00	42013.40
1220.00	59952.82
1221.00	65535.00
1222.00	65535.00
1223.00	65535.00
1224.00	65535.00
1225.00	65332.15
1226.00	56248.53
1227.00	40609.86
1228.00	22001.04
1229.00	10780.51
1230.00	5529.13
1231.00	3194.83
1232.00	2246.13
1233.00	1829.52
1234.00	1644.62
1235.00	1611.07
1236.00	2088.54
1237.00	3785.43
1238.00	7107.43
1239.00	11630.12
1240.00	15295.40
1241.00	16358.78
1242.00	14593.24
1243.00	11248.61
1244.00	7722.21
1245.00	4784.06
1246.00	2798.50
1247.00	1761.64
1248.00	1250.63
1249.00	993.95
1250.00	926.85
1251.00	962.74
1252.00	1095.37
1253.00	1229.56
1254.00	1310.70
1255.00	1300.56
1256.00	1203.82
1257.00	1099.27
1258.00	1015.01
1259.00	979.12
1260.00	922.95
1261.00	881.60
1262.00	862.10
1263.00	847.27
1264.00	832.45
1265.00	779.40
1266.00	777.06
1267.00	787.98
1268.00	792.66
1269.00	781.74
1270.00	762.23
1271.00	772.38
1272.00	787.20
1273.00	827.77
1274.00	880.82
1275.00	1276.37
1276.00	2973.26
1277.00	7236.16
1278.00	14622.11
1279.00	22940.37
1280.00	28601.35
1281.00	28765.96
1282.00	24453.14
1283.00	17873.89
1284.00	11662.11
1285.00	6745.42
1286.00	3737.84
1287.00	2122.87
1288.00	1349.71
1289.00	967.42
1290.00	844.15
1291.00	835.57
1292.00	883.16
1293.00	919.05
1294.00	921.39
1295.00	1103.95
1296.00	1732.00
1297.00	2946.73
1298.00	4660.01
1299.00	6153.27
1300.00	6774.29
1301.00	6283.56
1302.00	5066.48
1303.00	3691.81
1304.00	2476.29
1305.00	1634.47
1306.00	1192.11
1307.00	969.76
1308.00	870.68
1309.00	802.02
1310.00	760.67
1311.00	701.38
1312.00	652.23
1313.00	614.78
1314.00	607.76
1315.00	593.72
1316.00	568.75
1317.00	571.09
1318.00	560.95
1319.00	580.45
1320.00	571.09
1321.00	571.09
1322.00	560.95
1323.00	537.54
1324.00	536.76
1325.00	538.32
1326.00	560.17
1327.00	556.27
1328.00	569.53
1329.00	617.12
1330.00	1001.75
1331.00	1914.56
1332.00	3536.55
1333.00	5430.82
1334.00	6944.37
1335.00	7298.57
1336.00	6624.50
1337.00	5217.83
1338.00	3769.82
1339.00	2451.32
1340.00	1539.29
1341.00	1041.54
1342.00	796.56
1343.00	685.00
1344.00	638.19
1345.00	621.80
1346.00	635.85
1347.00	638.97
1348.00	644.43
1349.00	649.11
1350.00	625.70
1351.00	644.43
1352.00	674.85
1353.00	713.86
1354.00	709.18
1355.00	707.62
1356.00	768.48
