SpectraSuite Data File
++++++++++++++++++++++++++++++++++++
Date: Thu Nov 16 13:55:15 EST 2017
User: cheriyan
Dark Spectrum Present: No
Reference Spectrum Present: No
Number of Sampled Component Spectra: 1
Spectrometers: USB2+H05261
Integration Time (usec): 100000 (USB2+H05261)
Spectra Averaged: 1 (USB2+H05261)
Boxcar Smoothing: 1 (USB2+H05261)
Correct for Electrical Dark: No (USB2+H05261)
Strobe/Lamp Enabled: No (USB2+H05261)
Correct for Detector Non-linearity: No (USB2+H05261)
Correct for Stray Light: No (USB2+H05261)
Number of Pixels in Processed Spectrum: 2048
>>>>>Begin Processed Spectral Data<<<<<
0.00	304.27
1.00	304.27
2.00	280.08
3.00	253.56
4.00	241.86
5.00	232.49
6.00	223.13
7.00	209.09
8.00	237.17
9.00	262.14
10.00	280.08
11.00	247.32
12.00	243.42
13.00	233.27
14.00	252.00
15.00	248.10
16.00	252.00
17.00	272.28
18.00	276.18
19.00	308.95
20.00	320.65
21.00	336.26
22.00	310.51
23.00	304.27
24.00	286.33
25.00	301.93
26.00	315.97
27.00	358.88
28.00	373.71
29.00	386.19
30.00	376.05
31.00	369.02
32.00	349.52
33.00	353.42
34.00	356.54
35.00	365.12
36.00	364.34
37.00	371.36
38.00	379.17
39.00	400.23
40.00	411.93
41.00	438.46
42.00	459.53
43.00	424.42
44.00	411.93
45.00	385.41
46.00	430.66
47.00	421.30
48.00	445.48
49.00	440.02
50.00	445.48
51.00	423.64
52.00	414.27
53.00	433.78
54.00	450.94
55.00	453.28
56.00	454.06
57.00	464.21
58.00	457.18
59.00	434.56
60.00	425.20
61.00	433.78
62.00	413.49
63.00	408.81
64.00	397.89
65.00	422.08
66.00	422.08
67.00	425.20
68.00	425.20
69.00	387.75
70.00	385.41
71.00	372.93
72.00	383.07
73.00	395.55
74.00	387.75
75.00	385.41
76.00	365.90
77.00	386.97
78.00	393.21
79.00	422.86
80.00	407.25
81.00	422.08
82.00	390.09
83.00	398.67
84.00	394.77
85.00	423.64
86.00	432.22
87.00	437.68
88.00	425.20
89.00	415.84
90.00	406.47
91.00	403.35
92.00	381.51
93.00	387.75
94.00	354.98
95.00	389.31
96.00	407.25
97.00	440.02
98.00	430.66
99.00	404.91
100.00	418.18
101.00	408.03
102.00	403.35
103.00	379.95
104.00	377.61
105.00	368.24
106.00	368.24
107.00	376.05
108.00	413.49
109.00	442.36
110.00	444.70
111.00	411.15
112.00	397.89
113.00	379.17
114.00	399.45
115.00	403.35
116.00	415.06
117.00	415.06
118.00	436.90
119.00	446.26
120.00	449.38
121.00	418.96
122.00	436.12
123.00	420.52
124.00	423.64
125.00	416.62
126.00	428.32
127.00	422.86
128.00	405.69
129.00	401.79
130.00	391.65
131.00	416.62
132.00	403.35
133.00	405.69
134.00	385.41
135.00	405.69
136.00	418.96
137.00	417.40
138.00	411.15
139.00	411.15
140.00	415.06
141.00	415.06
142.00	423.64
143.00	425.20
144.00	437.68
145.00	468.11
146.00	489.95
147.00	476.69
148.00	436.12
149.00	415.84
150.00	433.00
151.00	432.22
152.00	433.78
153.00	407.25
154.00	408.81
155.00	377.61
156.00	356.54
157.00	348.74
158.00	399.45
159.00	442.36
160.00	432.22
161.00	408.03
162.00	425.98
163.00	453.28
164.00	441.58
165.00	408.03
166.00	390.09
167.00	406.47
168.00	413.49
169.00	418.18
170.00	394.77
171.00	408.03
172.00	414.27
173.00	433.00
174.00	417.40
175.00	415.84
176.00	400.23
177.00	409.59
178.00	416.62
179.00	437.68
180.00	420.52
181.00	433.00
182.00	419.74
183.00	414.27
184.00	393.21
185.00	384.63
186.00	397.11
187.00	397.11
188.00	406.47
189.00	399.45
190.00	373.71
191.00	393.99
192.00	426.76
193.00	475.13
194.00	496.19
195.00	498.53
196.00	512.58
197.00	506.34
198.00	504.78
199.00	486.83
200.00	448.60
201.00	411.15
202.00	386.97
203.00	404.13
204.00	429.10
205.00	424.42
206.00	421.30
207.00	386.97
208.00	387.75
209.00	404.13
210.00	430.66
211.00	441.58
212.00	419.74
213.00	397.89
214.00	397.89
215.00	415.84
216.00	422.86
217.00	422.86
218.00	401.01
219.00	394.77
220.00	391.65
221.00	390.09
222.00	408.03
223.00	404.13
224.00	390.09
225.00	388.53
226.00	372.15
227.00	354.98
228.00	354.20
229.00	392.43
230.00	409.59
231.00	412.71
232.00	411.93
233.00	439.24
234.00	428.32
235.00	415.84
236.00	393.99
237.00	387.75
238.00	375.27
239.00	396.33
240.00	415.84
241.00	442.36
242.00	421.30
243.00	403.35
244.00	392.43
245.00	405.69
246.00	413.49
247.00	415.06
248.00	417.40
249.00	433.00
250.00	423.64
251.00	412.71
252.00	384.63
253.00	414.27
254.00	448.60
255.00	497.75
256.00	476.69
257.00	461.09
258.00	438.46
259.00	452.50
260.00	419.74
261.00	391.65
262.00	379.95
263.00	389.31
264.00	420.52
265.00	443.92
266.00	521.16
267.00	558.61
268.00	574.99
269.00	560.17
270.00	525.84
271.00	505.56
272.00	530.52
273.00	569.53
274.00	584.35
275.00	577.33
276.00	608.54
277.00	620.24
278.00	567.97
279.00	524.28
280.00	486.05
281.00	511.80
282.00	501.65
283.00	509.46
284.00	470.45
285.00	443.14
286.00	418.96
287.00	419.74
288.00	419.74
289.00	412.71
290.00	426.76
291.00	426.76
292.00	434.56
293.00	445.48
294.00	437.68
295.00	419.74
296.00	374.49
297.00	361.22
298.00	370.58
299.00	376.05
300.00	400.23
301.00	429.88
302.00	432.22
303.00	444.70
304.00	420.52
305.00	459.53
306.00	490.73
307.00	551.59
308.00	592.94
309.00	624.92
310.00	615.56
311.00	592.94
312.00	527.40
313.00	509.46
314.00	482.93
315.00	476.69
316.00	455.62
317.00	433.00
318.00	411.15
319.00	386.97
320.00	388.53
321.00	396.33
322.00	414.27
323.00	415.06
324.00	393.99
325.00	411.15
326.00	410.37
327.00	447.04
328.00	439.24
329.00	452.50
330.00	443.14
331.00	439.24
332.00	445.48
333.00	433.78
334.00	430.66
335.00	403.35
336.00	408.81
337.00	430.66
338.00	441.58
339.00	444.70
340.00	407.25
341.00	423.64
342.00	417.40
343.00	429.88
344.00	431.44
345.00	454.84
346.00	546.12
347.00	623.36
348.00	727.13
349.00	727.91
350.00	689.68
351.00	624.92
352.00	567.97
353.00	532.08
354.00	500.87
355.00	507.12
356.00	514.92
357.00	506.34
358.00	496.97
359.00	473.57
360.00	469.67
361.00	430.66
362.00	443.92
363.00	425.98
364.00	442.36
365.00	434.56
366.00	436.90
367.00	440.80
368.00	443.92
369.00	468.89
370.00	452.50
371.00	467.33
372.00	429.10
373.00	437.68
374.00	411.15
375.00	427.54
376.00	418.96
377.00	411.15
378.00	418.96
379.00	408.81
380.00	415.06
381.00	423.64
382.00	442.36
383.00	436.90
384.00	426.76
385.00	424.42
386.00	416.62
387.00	409.59
388.00	399.45
389.00	407.25
390.00	413.49
391.00	429.10
392.00	435.34
393.00	439.24
394.00	450.16
395.00	447.04
396.00	432.22
397.00	423.64
398.00	409.59
399.00	411.93
400.00	395.55
401.00	418.18
402.00	418.96
403.00	442.36
404.00	449.38
405.00	448.60
406.00	420.52
407.00	382.29
408.00	372.93
409.00	377.61
410.00	401.01
411.00	401.01
412.00	416.62
413.00	422.86
414.00	438.46
415.00	421.30
416.00	389.31
417.00	394.77
418.00	406.47
419.00	431.44
420.00	424.42
421.00	417.40
422.00	396.33
423.00	383.07
424.00	387.75
425.00	419.74
426.00	422.08
427.00	424.42
428.00	406.47
429.00	426.76
430.00	432.22
431.00	451.72
432.00	408.03
433.00	384.63
434.00	390.87
435.00	408.81
436.00	432.22
437.00	417.40
438.00	439.24
439.00	420.52
440.00	421.30
441.00	428.32
442.00	408.03
443.00	410.37
444.00	401.01
445.00	432.22
446.00	425.20
447.00	425.98
448.00	405.69
449.00	408.81
450.00	395.55
451.00	422.86
452.00	420.52
453.00	445.48
454.00	443.14
455.00	446.26
456.00	423.64
457.00	433.00
458.00	423.64
459.00	418.18
460.00	410.37
461.00	413.49
462.00	429.10
463.00	403.35
464.00	407.25
465.00	410.37
466.00	423.64
467.00	418.96
468.00	401.79
469.00	404.91
470.00	418.96
471.00	421.30
472.00	411.15
473.00	390.09
474.00	393.99
475.00	382.29
476.00	391.65
477.00	380.73
478.00	381.51
479.00	397.89
480.00	417.40
481.00	465.77
482.00	451.72
483.00	451.72
484.00	426.76
485.00	414.27
486.00	406.47
487.00	395.55
488.00	405.69
489.00	397.11
490.00	399.45
491.00	417.40
492.00	452.50
493.00	459.53
494.00	459.53
495.00	422.08
496.00	402.57
497.00	400.23
498.00	411.15
499.00	437.68
500.00	449.38
501.00	464.21
502.00	444.70
503.00	434.56
504.00	413.49
505.00	415.84
506.00	404.13
507.00	413.49
508.00	454.06
509.00	460.31
510.00	452.50
511.00	396.33
512.00	375.27
513.00	371.36
514.00	399.45
515.00	394.77
516.00	386.97
517.00	409.59
518.00	445.48
519.00	468.89
520.00	455.62
521.00	432.22
522.00	443.92
523.00	440.80
524.00	454.84
525.00	438.46
526.00	434.56
527.00	443.14
528.00	461.87
529.00	451.72
530.00	417.40
531.00	412.71
532.00	422.86
533.00	446.26
534.00	439.24
535.00	464.21
536.00	476.69
537.00	462.65
538.00	417.40
539.00	383.07
540.00	384.63
541.00	404.91
542.00	409.59
543.00	401.01
544.00	411.15
545.00	427.54
546.00	443.14
547.00	438.46
548.00	450.16
549.00	456.40
550.00	480.59
551.00	468.89
552.00	469.67
553.00	429.88
554.00	428.32
555.00	426.76
556.00	460.31
557.00	451.72
558.00	418.96
559.00	399.45
560.00	399.45
561.00	405.69
562.00	387.75
563.00	387.75
564.00	424.42
565.00	422.08
566.00	438.46
567.00	443.92
568.00	455.62
569.00	422.86
570.00	402.57
571.00	409.59
572.00	423.64
573.00	425.98
574.00	440.02
575.00	461.87
576.00	476.69
577.00	453.28
578.00	427.54
579.00	436.90
580.00	424.42
581.00	423.64
582.00	389.31
583.00	415.84
584.00	432.22
585.00	454.84
586.00	443.92
587.00	422.86
588.00	411.93
589.00	447.04
590.00	430.66
591.00	402.57
592.00	363.56
593.00	379.17
594.00	397.89
595.00	399.45
596.00	402.57
597.00	408.81
598.00	416.62
599.00	437.68
600.00	429.10
601.00	404.91
602.00	376.83
603.00	388.53
604.00	423.64
605.00	445.48
606.00	451.72
607.00	454.84
608.00	431.44
609.00	396.33
610.00	374.49
611.00	409.59
612.00	435.34
613.00	430.66
614.00	433.00
615.00	433.00
616.00	452.50
617.00	419.74
618.00	403.35
619.00	394.77
620.00	430.66
621.00	436.12
622.00	411.15
623.00	395.55
624.00	422.86
625.00	440.80
626.00	428.32
627.00	381.51
628.00	385.41
629.00	402.57
630.00	443.92
631.00	430.66
632.00	402.57
633.00	398.67
634.00	404.13
635.00	429.88
636.00	440.80
637.00	415.06
638.00	403.35
639.00	402.57
640.00	436.12
641.00	443.92
642.00	422.08
643.00	410.37
644.00	394.77
645.00	409.59
646.00	411.15
647.00	430.66
648.00	408.81
649.00	418.18
650.00	430.66
651.00	445.48
652.00	457.18
653.00	418.18
654.00	469.67
655.00	477.47
656.00	506.34
657.00	429.10
658.00	408.81
659.00	390.87
660.00	404.13
661.00	399.45
662.00	445.48
663.00	461.09
664.00	459.53
665.00	455.62
666.00	453.28
667.00	484.49
668.00	468.11
669.00	458.74
670.00	435.34
671.00	454.84
672.00	450.94
673.00	448.60
674.00	443.14
675.00	467.33
676.00	492.29
677.00	473.57
678.00	450.16
679.00	449.38
680.00	443.92
681.00	473.57
682.00	455.62
683.00	457.18
684.00	420.52
685.00	440.02
686.00	449.38
687.00	450.94
688.00	444.70
689.00	416.62
690.00	431.44
691.00	399.45
692.00	420.52
693.00	415.06
694.00	453.28
695.00	427.54
696.00	423.64
697.00	408.81
698.00	436.12
699.00	427.54
700.00	429.88
701.00	411.15
702.00	426.76
703.00	420.52
704.00	427.54
705.00	409.59
706.00	423.64
707.00	427.54
708.00	469.67
709.00	464.99
710.00	468.11
711.00	464.99
712.00	450.16
713.00	447.82
714.00	416.62
715.00	422.86
716.00	401.79
717.00	424.42
718.00	482.93
719.00	522.72
720.00	504.78
721.00	454.06
722.00	457.18
723.00	476.69
724.00	458.75
725.00	416.62
726.00	397.11
727.00	411.15
728.00	438.46
729.00	464.21
730.00	470.45
731.00	461.09
732.00	450.16
733.00	444.70
734.00	482.15
735.00	514.14
736.00	543.00
737.00	532.08
738.00	536.76
739.00	521.94
740.00	482.15
741.00	431.44
742.00	404.91
743.00	432.22
744.00	440.80
745.00	460.31
746.00	461.09
747.00	436.90
748.00	402.57
749.00	385.41
750.00	418.18
751.00	440.80
752.00	459.53
753.00	432.22
754.00	433.00
755.00	432.22
756.00	440.02
757.00	426.76
758.00	427.54
759.00	454.84
760.00	487.61
761.00	472.79
762.00	440.80
763.00	425.20
764.00	453.28
765.00	468.89
766.00	456.40
767.00	437.68
768.00	407.25
769.00	418.96
770.00	407.25
771.00	437.68
772.00	426.76
773.00	447.04
774.00	442.36
775.00	451.72
776.00	436.90
777.00	440.80
778.00	456.40
779.00	497.75
780.00	533.64
781.00	563.29
782.00	564.07
783.00	638.97
784.00	610.10
785.00	565.63
786.00	454.84
787.00	433.00
788.00	441.58
789.00	428.32
790.00	425.98
791.00	414.27
792.00	414.27
793.00	428.32
794.00	438.46
795.00	454.06
796.00	450.94
797.00	450.94
798.00	461.87
799.00	455.62
800.00	446.26
801.00	446.26
802.00	454.06
803.00	459.53
804.00	448.60
805.00	435.34
806.00	448.60
807.00	454.06
808.00	462.65
809.00	454.06
810.00	454.84
811.00	436.90
812.00	403.35
813.00	383.85
814.00	391.65
815.00	420.52
816.00	424.42
817.00	421.30
818.00	427.54
819.00	419.74
820.00	422.86
821.00	439.24
822.00	504.00
823.00	550.81
824.00	550.81
825.00	496.97
826.00	448.60
827.00	432.22
828.00	437.68
829.00	440.02
830.00	449.38
831.00	464.21
832.00	489.95
833.00	495.41
834.00	493.07
835.00	492.29
836.00	469.67
837.00	436.90
838.00	424.42
839.00	412.71
840.00	424.42
841.00	404.91
842.00	401.79
843.00	403.35
844.00	429.88
845.00	436.90
846.00	437.68
847.00	414.27
848.00	418.18
849.00	444.70
850.00	464.21
851.00	468.89
852.00	430.66
853.00	424.42
854.00	418.96
855.00	445.48
856.00	444.70
857.00	447.82
858.00	437.68
859.00	437.68
860.00	443.14
861.00	477.47
862.00	472.79
863.00	479.03
864.00	464.99
865.00	445.48
866.00	445.48
867.00	436.12
868.00	449.38
869.00	437.68
870.00	412.71
871.00	437.68
872.00	461.09
873.00	484.49
874.00	461.87
875.00	425.20
876.00	445.48
877.00	477.47
878.00	492.29
879.00	475.13
880.00	447.82
881.00	457.18
882.00	434.56
883.00	457.18
884.00	448.60
885.00	479.03
886.00	444.70
887.00	443.92
888.00	428.32
889.00	445.48
890.00	454.06
891.00	440.02
892.00	443.14
893.00	411.93
894.00	440.02
895.00	447.04
896.00	470.45
897.00	457.18
898.00	440.02
899.00	466.55
900.00	465.77
901.00	495.41
902.00	504.78
903.00	551.59
904.00	638.19
905.00	752.09
906.00	840.25
907.00	818.41
908.00	748.97
909.00	997.85
910.00	1059.48
911.00	1133.60
912.00	898.77
913.00	890.96
914.00	856.64
915.00	762.23
916.00	643.65
917.00	535.20
918.00	516.48
919.00	507.90
920.00	479.81
921.00	472.79
922.00	467.33
923.00	483.71
924.00	467.33
925.00	453.28
926.00	415.84
927.00	393.21
928.00	379.95
929.00	422.86
930.00	440.02
931.00	473.57
932.00	492.29
933.00	482.93
934.00	472.01
935.00	455.62
936.00	447.04
937.00	443.14
938.00	427.54
939.00	453.28
940.00	464.99
941.00	477.47
942.00	493.85
943.00	623.36
944.00	1077.43
945.00	1924.70
946.00	2964.68
947.00	3713.65
948.00	3761.24
949.00	3207.31
950.00	2341.32
951.00	1618.87
952.00	1071.19
953.00	768.48
954.00	583.57
955.00	504.00
956.00	464.21
957.00	436.90
958.00	433.00
959.00	405.69
960.00	421.30
961.00	419.74
962.00	436.12
963.00	429.88
964.00	443.92
965.00	450.16
966.00	474.35
967.00	467.33
968.00	467.33
969.00	450.94
970.00	450.94
971.00	468.89
972.00	444.70
973.00	439.24
974.00	423.64
975.00	432.22
976.00	428.32
977.00	438.46
978.00	448.60
979.00	456.40
980.00	474.35
981.00	454.84
982.00	450.94
983.00	425.20
984.00	425.20
985.00	405.69
986.00	396.33
987.00	435.34
988.00	488.39
989.00	496.97
990.00	466.55
991.00	411.15
992.00	412.71
993.00	404.91
994.00	429.10
995.00	434.56
996.00	461.87
997.00	463.43
998.00	440.02
999.00	449.38
1000.00	443.14
1001.00	463.43
1002.00	434.56
1003.00	455.62
1004.00	470.45
1005.00	472.79
1006.00	456.40
1007.00	447.82
1008.00	446.26
1009.00	453.28
1010.00	447.82
1011.00	455.62
1012.00	457.96
1013.00	461.87
1014.00	454.06
1015.00	468.89
1016.00	473.57
1017.00	447.82
1018.00	430.66
1019.00	412.71
1020.00	425.98
1021.00	425.98
1022.00	411.93
1023.00	415.84
1024.00	418.18
1025.00	430.66
1026.00	471.23
1027.00	461.09
1028.00	450.94
1029.00	405.69
1030.00	411.93
1031.00	457.96
1032.00	479.81
1033.00	469.67
1034.00	437.68
1035.00	442.36
1036.00	459.53
1037.00	460.31
1038.00	454.84
1039.00	465.77
1040.00	481.37
1041.00	494.63
1042.00	496.97
1043.00	504.78
1044.00	520.38
1045.00	553.15
1046.00	557.83
1047.00	510.24
1048.00	447.04
1049.00	423.64
1050.00	429.10
1051.00	428.32
1052.00	453.28
1053.00	482.93
1054.00	482.15
1055.00	468.11
1056.00	441.58
1057.00	455.62
1058.00	461.87
1059.00	457.18
1060.00	456.40
1061.00	445.48
1062.00	432.22
1063.00	406.47
1064.00	401.01
1065.00	429.10
1066.00	442.36
1067.00	448.60
1068.00	468.11
1069.00	487.61
1070.00	476.69
1071.00	455.62
1072.00	429.88
1073.00	432.22
1074.00	417.40
1075.00	449.38
1076.00	479.81
1077.00	488.39
1078.00	445.48
1079.00	443.92
1080.00	438.46
1081.00	447.82
1082.00	426.76
1083.00	434.56
1084.00	465.77
1085.00	447.04
1086.00	477.47
1087.00	431.44
1088.00	412.71
1089.00	384.63
1090.00	429.10
1091.00	461.87
1092.00	449.38
1093.00	418.18
1094.00	416.62
1095.00	444.70
1096.00	443.14
1097.00	455.62
1098.00	468.89
1099.00	544.56
1100.00	574.99
1101.00	579.67
1102.00	557.05
1103.00	537.54
1104.00	522.72
1105.00	480.59
1106.00	468.89
1107.00	440.02
1108.00	453.28
1109.00	454.06
1110.00	472.01
1111.00	468.11
1112.00	453.28
1113.00	441.58
1114.00	429.10
1115.00	433.78
1116.00	447.82
1117.00	459.53
1118.00	440.80
1119.00	452.50
1120.00	488.39
1121.00	504.00
1122.00	534.42
1123.00	508.68
1124.00	520.38
1125.00	487.61
1126.00	465.77
1127.00	452.50
1128.00	420.52
1129.00	438.46
1130.00	446.26
1131.00	436.90
1132.00	421.30
1133.00	439.24
1134.00	474.35
1135.00	468.11
1136.00	473.57
1137.00	496.19
1138.00	526.62
1139.00	523.50
1140.00	499.31
1141.00	483.71
1142.00	464.21
1143.00	454.84
1144.00	460.31
1145.00	468.89
1146.00	500.87
1147.00	529.74
1148.00	523.50
1149.00	525.84
1150.00	528.18
1151.00	544.56
1152.00	519.60
1153.00	532.08
1154.00	565.63
1155.00	608.54
1156.00	677.98
1157.00	739.61
1158.00	762.23
1159.00	709.96
1160.00	650.67
1161.00	597.62
1162.00	582.01
1163.00	608.54
1164.00	787.20
1165.00	1068.84
1166.00	1430.85
1167.00	1706.25
1168.00	1718.73
1169.00	1527.59
1170.00	1217.08
1171.00	993.17
1172.00	796.56
1173.00	681.10
1174.00	602.30
1175.00	592.16
1176.00	575.77
1177.00	589.03
1178.00	579.67
1179.00	580.45
1180.00	566.41
1181.00	603.86
1182.00	631.94
1183.00	638.19
1184.00	628.04
1185.00	605.42
1186.00	625.70
1187.00	648.33
1188.00	682.66
1189.00	708.40
1190.00	744.29
1191.00	843.37
1192.00	907.35
1193.00	935.43
1194.00	886.28
1195.00	850.39
1196.00	819.97
1197.00	809.05
1198.00	883.16
1199.00	1005.65
1200.00	1180.41
1201.00	1334.11
1202.00	1444.11
1203.00	1475.32
1204.00	1387.16
1205.00	1274.03
1206.00	1131.26
1207.00	1075.87
1208.00	1082.89
1209.00	1130.48
1210.00	1194.45
1211.00	1248.29
1212.00	1353.61
1213.00	1464.40
1214.00	1662.56
1215.00	1965.27
1216.00	2519.20
1217.00	5719.49
1218.00	21161.56
1219.00	41922.12
1220.00	59914.59
1221.00	65535.00
1222.00	65535.00
1223.00	65535.00
1224.00	65535.00
1225.00	65305.63
1226.00	56190.02
1227.00	40523.26
1228.00	21942.52
1229.00	10760.22
1230.00	5504.94
1231.00	3166.74
1232.00	2213.37
1233.00	1854.48
1234.00	1685.97
1235.00	1649.30
1236.00	2149.39
1237.00	3812.73
1238.00	7146.44
1239.00	11551.32
1240.00	15235.33
1241.00	16327.58
1242.00	14583.88
1243.00	11184.64
1244.00	7640.29
1245.00	4746.61
1246.00	2790.70
1247.00	1712.49
1248.00	1182.75
1249.00	968.20
1250.00	948.70
1251.00	999.41
1252.00	1081.33
1253.00	1174.95
1254.00	1268.57
1255.00	1302.90
1256.00	1253.75
1257.00	1146.08
1258.00	1026.72
1259.00	932.31
1260.00	905.79
1261.00	891.74
1262.00	886.28
1263.00	846.49
1264.00	825.43
1265.00	783.30
1266.00	768.48
1267.00	751.31
1268.00	748.19
1269.00	767.70
1270.00	773.16
1271.00	779.40
1272.00	762.23
1273.00	799.68
1274.00	869.12
1275.00	1247.51
1276.00	3004.47
1277.00	7273.60
1278.00	14684.52
1279.00	22948.95
1280.00	28548.29
1281.00	28604.47
1282.00	24345.47
1283.00	17798.99
1284.00	11677.71
1285.00	6699.39
1286.00	3688.68
1287.00	2092.44
1288.00	1323.18
1289.00	961.96
1290.00	866.78
1291.00	848.83
1292.00	882.38
1293.00	873.02
1294.00	881.60
1295.00	1070.40
1296.00	1692.99
1297.00	2942.83
1298.00	4655.33
1299.00	6175.89
1300.00	6789.89
1301.00	6316.33
1302.00	5086.76
1303.00	3651.24
1304.00	2428.70
1305.00	1601.71
1306.00	1190.55
1307.00	975.22
1308.00	862.10
1309.00	805.14
1310.00	741.95
1311.00	683.44
1312.00	640.53
1313.00	624.92
1314.00	607.76
1315.00	602.30
1316.00	598.40
1317.00	590.60
1318.00	569.53
1319.00	531.30
1320.00	524.28
1321.00	531.30
1322.00	528.18
1323.00	535.98
1324.00	548.47
1325.00	582.01
1326.00	603.08
1327.00	613.22
1328.00	635.07
1329.00	694.36
1330.00	1007.21
1331.00	1917.68
1332.00	3549.81
1333.00	5537.71
1334.00	7040.33
1335.00	7385.17
1336.00	6635.42
1337.00	5217.83
1338.00	3745.64
1339.00	2451.32
1340.00	1536.17
1341.00	1027.50
1342.00	766.92
1343.00	661.59
1344.00	636.63
1345.00	628.82
1346.00	651.45
1347.00	628.82
1348.00	656.13
1349.00	648.33
1350.00	641.31
1351.00	633.50
1352.00	657.69
1353.00	700.60
1354.00	695.14
1355.00	732.59
1356.00	781.74
