SpectraSuite Data File
++++++++++++++++++++++++++++++++++++
Date: Thu Nov 16 13:55:14 EST 2017
User: cheriyan
Dark Spectrum Present: No
Reference Spectrum Present: No
Number of Sampled Component Spectra: 1
Spectrometers: USB2+H05261
Integration Time (usec): 100000 (USB2+H05261)
Spectra Averaged: 1 (USB2+H05261)
Boxcar Smoothing: 1 (USB2+H05261)
Correct for Electrical Dark: No (USB2+H05261)
Strobe/Lamp Enabled: No (USB2+H05261)
Correct for Detector Non-linearity: No (USB2+H05261)
Correct for Stray Light: No (USB2+H05261)
Number of Pixels in Processed Spectrum: 2048
>>>>>Begin Processed Spectral Data<<<<<
0.00	339.38
1.00	339.38
2.00	332.36
3.00	305.05
4.00	301.15
5.00	273.84
6.00	291.79
7.00	256.68
8.00	256.68
9.00	221.57
10.00	214.55
11.00	202.85
12.00	220.79
13.00	255.12
14.00	280.08
15.00	280.86
16.00	258.24
17.00	271.50
18.00	276.18
19.00	308.17
20.00	315.19
21.00	337.04
22.00	339.38
23.00	313.63
24.00	303.49
25.00	308.17
26.00	333.14
27.00	346.40
28.00	351.86
29.00	368.24
30.00	367.46
31.00	370.58
32.00	375.27
33.00	383.07
34.00	399.45
35.00	404.13
36.00	417.40
37.00	404.91
38.00	401.01
39.00	393.99
40.00	397.89
41.00	419.74
42.00	442.36
43.00	444.70
44.00	439.24
45.00	400.23
46.00	398.67
47.00	399.45
48.00	430.66
49.00	420.52
50.00	408.03
51.00	406.47
52.00	440.02
53.00	446.26
54.00	438.46
55.00	420.52
56.00	402.57
57.00	404.13
58.00	411.15
59.00	420.52
60.00	435.34
61.00	425.98
62.00	423.64
63.00	415.06
64.00	412.71
65.00	402.57
66.00	405.69
67.00	414.27
68.00	435.34
69.00	412.71
70.00	419.74
71.00	428.32
72.00	441.58
73.00	415.84
74.00	390.87
75.00	387.75
76.00	381.51
77.00	408.03
78.00	417.40
79.00	452.50
80.00	443.92
81.00	447.82
82.00	429.10
83.00	416.62
84.00	397.11
85.00	397.89
86.00	398.67
87.00	395.55
88.00	397.11
89.00	401.01
90.00	406.47
91.00	393.21
92.00	381.51
93.00	387.75
94.00	385.41
95.00	386.19
96.00	407.25
97.00	431.44
98.00	436.12
99.00	408.03
100.00	404.91
101.00	392.43
102.00	409.59
103.00	416.62
104.00	436.12
105.00	444.70
106.00	442.36
107.00	444.70
108.00	416.62
109.00	398.67
110.00	410.37
111.00	397.11
112.00	403.35
113.00	368.24
114.00	394.77
115.00	400.23
116.00	404.91
117.00	409.59
118.00	400.23
119.00	423.64
120.00	423.64
121.00	416.62
122.00	406.47
123.00	401.79
124.00	416.62
125.00	407.25
126.00	392.43
127.00	367.46
128.00	374.49
129.00	391.65
130.00	409.59
131.00	390.09
132.00	396.33
133.00	415.84
134.00	432.22
135.00	433.78
136.00	429.88
137.00	442.36
138.00	443.92
139.00	440.02
140.00	430.66
141.00	430.66
142.00	424.42
143.00	456.40
144.00	454.06
145.00	474.35
146.00	478.25
147.00	466.55
148.00	464.21
149.00	452.50
150.00	451.72
151.00	447.82
152.00	429.10
153.00	414.27
154.00	416.62
155.00	420.52
156.00	426.76
157.00	439.24
158.00	442.36
159.00	462.65
160.00	424.42
161.00	440.02
162.00	432.22
163.00	427.54
164.00	379.95
165.00	352.64
166.00	373.71
167.00	407.25
168.00	412.71
169.00	405.69
170.00	402.57
171.00	424.42
172.00	429.88
173.00	427.54
174.00	436.12
175.00	405.69
176.00	379.17
177.00	365.12
178.00	375.27
179.00	387.75
180.00	380.73
181.00	392.43
182.00	403.35
183.00	410.37
184.00	420.52
185.00	411.93
186.00	409.59
187.00	413.49
188.00	422.08
189.00	402.57
190.00	368.24
191.00	385.41
192.00	407.25
193.00	420.52
194.00	433.78
195.00	457.18
196.00	536.76
197.00	548.47
198.00	525.06
199.00	472.79
200.00	428.32
201.00	437.68
202.00	411.15
203.00	398.67
204.00	392.43
205.00	399.45
206.00	408.81
207.00	414.27
208.00	413.49
209.00	397.89
210.00	404.91
211.00	433.78
212.00	461.87
213.00	437.68
214.00	397.11
215.00	389.31
216.00	423.64
217.00	425.20
218.00	421.30
219.00	400.23
220.00	379.17
221.00	376.05
222.00	371.36
223.00	415.06
224.00	409.59
225.00	400.23
226.00	379.17
227.00	390.09
228.00	411.15
229.00	426.76
230.00	443.14
231.00	418.96
232.00	412.71
233.00	400.23
234.00	408.81
235.00	409.59
236.00	382.29
237.00	379.17
238.00	362.00
239.00	416.62
240.00	447.82
241.00	486.05
242.00	474.35
243.00	454.84
244.00	437.68
245.00	443.92
246.00	464.99
247.00	475.91
248.00	464.21
249.00	459.53
250.00	446.26
251.00	444.70
252.00	430.66
253.00	444.70
254.00	455.62
255.00	466.55
256.00	477.47
257.00	462.65
258.00	448.60
259.00	447.04
260.00	458.75
261.00	460.31
262.00	431.44
263.00	435.34
264.00	461.09
265.00	493.85
266.00	492.29
267.00	523.50
268.00	556.27
269.00	585.13
270.00	571.09
271.00	567.97
272.00	593.72
273.00	631.16
274.00	644.43
275.00	626.48
276.00	611.66
277.00	585.13
278.00	558.61
279.00	503.22
280.00	457.18
281.00	425.98
282.00	422.08
283.00	437.68
284.00	451.72
285.00	446.26
286.00	434.56
287.00	432.22
288.00	422.08
289.00	422.08
290.00	383.07
291.00	379.17
292.00	377.61
293.00	364.34
294.00	351.86
295.00	358.88
296.00	365.12
297.00	404.91
298.00	397.11
299.00	449.38
300.00	416.62
301.00	422.08
302.00	411.93
303.00	424.42
304.00	411.93
305.00	428.32
306.00	461.87
307.00	539.88
308.00	617.12
309.00	656.13
310.00	649.11
311.00	592.16
312.00	554.71
313.00	490.73
314.00	449.38
315.00	429.10
316.00	447.82
317.00	446.26
318.00	413.49
319.00	394.77
320.00	408.03
321.00	422.86
322.00	398.67
323.00	398.67
324.00	405.69
325.00	423.64
326.00	417.40
327.00	436.90
328.00	445.48
329.00	429.88
330.00	418.96
331.00	438.46
332.00	466.55
333.00	443.14
334.00	408.03
335.00	401.79
336.00	413.49
337.00	396.33
338.00	386.19
339.00	396.33
340.00	461.87
341.00	445.48
342.00	438.46
343.00	407.25
344.00	436.12
345.00	454.84
346.00	515.70
347.00	595.28
348.00	714.64
349.00	769.26
350.00	743.51
351.00	642.87
352.00	584.35
353.00	566.41
354.00	576.55
355.00	533.64
356.00	511.02
357.00	488.39
358.00	482.15
359.00	435.34
360.00	412.71
361.00	392.43
362.00	430.66
363.00	441.58
364.00	441.58
365.00	428.32
366.00	403.35
367.00	398.67
368.00	430.66
369.00	458.74
370.00	485.27
371.00	413.49
372.00	400.23
373.00	389.31
374.00	428.32
375.00	411.15
376.00	421.30
377.00	423.64
378.00	423.64
379.00	388.53
380.00	371.36
381.00	372.15
382.00	411.93
383.00	406.47
384.00	430.66
385.00	418.96
386.00	426.76
387.00	406.47
388.00	404.91
389.00	418.18
390.00	433.00
391.00	435.34
392.00	408.81
393.00	418.18
394.00	410.37
395.00	420.52
396.00	397.11
397.00	416.62
398.00	427.54
399.00	420.52
400.00	418.18
401.00	399.45
402.00	408.81
403.00	412.71
404.00	432.22
405.00	454.06
406.00	433.00
407.00	449.38
408.00	427.54
409.00	449.38
410.00	415.84
411.00	422.86
412.00	425.98
413.00	447.82
414.00	447.04
415.00	450.94
416.00	444.70
417.00	443.14
418.00	390.09
419.00	395.55
420.00	406.47
421.00	425.20
422.00	414.27
423.00	428.32
424.00	407.25
425.00	433.78
426.00	417.40
427.00	431.44
428.00	409.59
429.00	408.03
430.00	424.42
431.00	440.80
432.00	427.54
433.00	418.18
434.00	402.57
435.00	432.22
436.00	445.48
437.00	446.26
438.00	440.02
439.00	417.40
440.00	422.08
441.00	440.02
442.00	472.79
443.00	486.05
444.00	454.84
445.00	440.80
446.00	436.12
447.00	433.78
448.00	423.64
449.00	409.59
450.00	420.52
451.00	447.04
452.00	455.62
453.00	447.82
454.00	428.32
455.00	405.69
456.00	390.87
457.00	390.87
458.00	405.69
459.00	402.57
460.00	387.75
461.00	378.39
462.00	393.99
463.00	419.74
464.00	421.30
465.00	401.79
466.00	370.58
467.00	385.41
468.00	411.93
469.00	448.60
470.00	409.59
471.00	418.18
472.00	420.52
473.00	458.74
474.00	455.62
475.00	430.66
476.00	411.15
477.00	390.87
478.00	392.43
479.00	404.13
480.00	393.99
481.00	396.33
482.00	405.69
483.00	418.96
484.00	433.78
485.00	406.47
486.00	408.81
487.00	378.39
488.00	403.35
489.00	388.53
490.00	416.62
491.00	417.40
492.00	437.68
493.00	428.32
494.00	450.94
495.00	422.86
496.00	417.40
497.00	395.55
498.00	413.49
499.00	404.91
500.00	402.57
501.00	425.98
502.00	457.96
503.00	436.12
504.00	429.10
505.00	411.93
506.00	465.77
507.00	466.55
508.00	480.59
509.00	431.44
510.00	443.14
511.00	433.78
512.00	442.36
513.00	424.42
514.00	425.20
515.00	434.56
516.00	429.88
517.00	425.98
518.00	428.32
519.00	432.22
520.00	450.16
521.00	448.60
522.00	463.43
523.00	433.78
524.00	419.74
525.00	417.40
526.00	415.84
527.00	426.76
528.00	418.96
529.00	452.50
530.00	471.23
531.00	487.61
532.00	480.59
533.00	489.95
534.00	467.33
535.00	447.04
536.00	415.84
537.00	432.22
538.00	457.96
539.00	471.23
540.00	461.09
541.00	447.04
542.00	434.56
543.00	421.30
544.00	394.77
545.00	383.85
546.00	386.19
547.00	406.47
548.00	401.79
549.00	432.22
550.00	444.70
551.00	453.28
552.00	428.32
553.00	444.70
554.00	475.13
555.00	497.75
556.00	467.33
557.00	475.91
558.00	466.55
559.00	464.21
560.00	433.78
561.00	443.92
562.00	447.82
563.00	426.76
564.00	396.33
565.00	388.53
566.00	425.20
567.00	460.31
568.00	464.99
569.00	425.20
570.00	395.55
571.00	392.43
572.00	430.66
573.00	432.22
574.00	445.48
575.00	446.26
576.00	457.18
577.00	467.33
578.00	462.65
579.00	440.02
580.00	416.62
581.00	415.06
582.00	440.80
583.00	434.56
584.00	424.42
585.00	422.86
586.00	446.26
587.00	461.09
588.00	428.32
589.00	426.76
590.00	395.55
591.00	415.06
592.00	425.20
593.00	433.00
594.00	438.46
595.00	414.27
596.00	425.98
597.00	420.52
598.00	423.64
599.00	436.12
600.00	483.71
601.00	500.87
602.00	486.05
603.00	410.37
604.00	400.23
605.00	389.31
606.00	437.68
607.00	436.90
608.00	428.32
609.00	390.09
610.00	366.68
611.00	378.39
612.00	397.11
613.00	435.34
614.00	452.50
615.00	457.18
616.00	457.18
617.00	428.32
618.00	433.78
619.00	441.58
620.00	449.38
621.00	439.24
622.00	418.18
623.00	408.03
624.00	411.15
625.00	432.22
626.00	456.40
627.00	433.78
628.00	410.37
629.00	399.45
630.00	425.98
631.00	418.96
632.00	410.37
633.00	402.57
634.00	390.09
635.00	399.45
636.00	430.66
637.00	439.24
638.00	449.38
639.00	429.10
640.00	432.22
641.00	421.30
642.00	396.33
643.00	401.79
644.00	418.96
645.00	418.18
646.00	433.78
647.00	415.06
648.00	427.54
649.00	399.45
650.00	394.77
651.00	403.35
652.00	424.42
653.00	433.78
654.00	491.51
655.00	491.51
656.00	487.61
657.00	401.79
658.00	391.65
659.00	392.43
660.00	417.40
661.00	375.27
662.00	409.59
663.00	408.03
664.00	456.40
665.00	448.60
666.00	418.96
667.00	427.54
668.00	421.30
669.00	436.90
670.00	425.20
671.00	391.65
672.00	404.13
673.00	403.35
674.00	422.08
675.00	412.71
676.00	408.03
677.00	418.18
678.00	411.93
679.00	429.10
680.00	411.93
681.00	431.44
682.00	401.01
683.00	405.69
684.00	406.47
685.00	438.46
686.00	459.53
687.00	447.04
688.00	430.66
689.00	424.42
690.00	427.54
691.00	421.30
692.00	409.59
693.00	393.21
694.00	386.97
695.00	363.56
696.00	397.89
697.00	421.30
698.00	462.65
699.00	449.38
700.00	430.66
701.00	408.81
702.00	427.54
703.00	441.58
704.00	438.46
705.00	433.78
706.00	424.42
707.00	439.24
708.00	422.08
709.00	414.27
710.00	409.59
711.00	415.84
712.00	436.12
713.00	428.32
714.00	443.92
715.00	450.94
716.00	439.24
717.00	404.13
718.00	413.49
719.00	432.22
720.00	461.09
721.00	414.27
722.00	435.34
723.00	437.68
724.00	484.49
725.00	463.43
726.00	444.70
727.00	428.32
728.00	411.15
729.00	445.48
730.00	433.78
731.00	467.33
732.00	442.36
733.00	470.45
734.00	472.01
735.00	506.34
736.00	502.43
737.00	514.92
738.00	510.24
739.00	492.29
740.00	443.14
741.00	404.91
742.00	417.40
743.00	466.55
744.00	458.74
745.00	457.18
746.00	414.27
747.00	425.20
748.00	425.20
749.00	423.64
750.00	431.44
751.00	411.93
752.00	431.44
753.00	427.54
754.00	439.24
755.00	427.54
756.00	411.93
757.00	417.40
758.00	445.48
759.00	479.81
760.00	500.09
761.00	486.83
762.00	465.77
763.00	422.86
764.00	448.60
765.00	444.70
766.00	454.84
767.00	418.96
768.00	408.81
769.00	408.81
770.00	401.01
771.00	418.96
772.00	438.46
773.00	465.77
774.00	488.39
775.00	477.47
776.00	468.11
777.00	459.53
778.00	460.31
779.00	475.91
780.00	505.56
781.00	539.88
782.00	553.93
783.00	624.14
784.00	592.94
785.00	567.97
786.00	459.53
787.00	451.72
788.00	426.76
789.00	407.25
790.00	389.31
791.00	413.49
792.00	429.10
793.00	457.18
794.00	424.42
795.00	427.54
796.00	429.10
797.00	474.35
798.00	473.57
799.00	491.51
800.00	482.15
801.00	496.97
802.00	475.91
803.00	460.31
804.00	441.58
805.00	442.36
806.00	457.18
807.00	503.22
808.00	514.14
809.00	513.36
810.00	472.01
811.00	463.43
812.00	433.00
813.00	418.96
814.00	394.77
815.00	411.15
816.00	421.30
817.00	431.44
818.00	426.76
819.00	437.68
820.00	443.14
821.00	504.00
822.00	542.22
823.00	560.95
824.00	520.38
825.00	490.73
826.00	461.09
827.00	453.28
828.00	445.48
829.00	472.79
830.00	498.53
831.00	480.59
832.00	478.25
833.00	487.61
834.00	532.86
835.00	550.03
836.00	499.31
837.00	453.28
838.00	421.30
839.00	420.52
840.00	414.27
841.00	407.25
842.00	426.76
843.00	472.79
844.00	514.92
845.00	525.06
846.00	479.81
847.00	439.24
848.00	424.42
849.00	425.98
850.00	420.52
851.00	422.08
852.00	408.03
853.00	415.84
854.00	397.89
855.00	428.32
856.00	422.08
857.00	428.32
858.00	429.88
859.00	440.80
860.00	467.33
861.00	468.89
862.00	482.15
863.00	446.26
864.00	422.08
865.00	423.64
866.00	435.34
867.00	444.70
868.00	409.59
869.00	425.20
870.00	396.33
871.00	409.59
872.00	411.15
873.00	436.90
874.00	461.87
875.00	433.00
876.00	437.68
877.00	397.11
878.00	421.30
879.00	429.10
880.00	471.23
881.00	476.69
882.00	481.37
883.00	480.59
884.00	454.06
885.00	425.20
886.00	420.52
887.00	447.82
888.00	472.01
889.00	486.83
890.00	464.99
891.00	472.01
892.00	444.70
893.00	459.53
894.00	448.60
895.00	454.84
896.00	469.67
897.00	475.91
898.00	433.78
899.00	405.69
900.00	387.75
901.00	440.02
902.00	491.51
903.00	575.77
904.00	670.95
905.00	760.67
906.00	823.09
907.00	809.05
908.00	752.87
909.00	1001.75
910.00	1031.40
911.00	1079.77
912.00	830.89
913.00	823.09
914.00	794.22
915.00	713.86
916.00	632.72
917.00	585.91
918.00	559.39
919.00	531.30
920.00	505.56
921.00	474.35
922.00	464.99
923.00	447.04
924.00	478.25
925.00	485.27
926.00	460.31
927.00	434.56
928.00	431.44
929.00	455.62
930.00	455.62
931.00	443.92
932.00	441.58
933.00	433.00
934.00	445.48
935.00	459.53
936.00	469.67
937.00	470.45
938.00	436.90
939.00	435.34
940.00	437.68
941.00	472.79
942.00	489.95
943.00	640.53
944.00	1036.86
945.00	1876.33
946.00	2906.95
947.00	3627.83
948.00	3656.70
949.00	3093.41
950.00	2328.83
951.00	1609.51
952.00	1050.12
953.00	713.08
954.00	563.29
955.00	541.44
956.00	505.56
957.00	521.16
958.00	489.17
959.00	481.37
960.00	430.66
961.00	412.71
962.00	421.30
963.00	438.46
964.00	447.04
965.00	451.72
966.00	484.49
967.00	488.39
968.00	475.13
969.00	440.02
970.00	425.98
971.00	447.82
972.00	439.24
973.00	412.71
974.00	396.33
975.00	407.25
976.00	422.86
977.00	447.04
978.00	455.62
979.00	491.51
980.00	472.79
981.00	452.50
982.00	434.56
983.00	443.14
984.00	461.87
985.00	461.09
986.00	433.78
987.00	425.98
988.00	421.30
989.00	450.94
990.00	447.82
991.00	444.70
992.00	432.22
993.00	434.56
994.00	435.34
995.00	414.27
996.00	422.08
997.00	413.49
998.00	438.46
999.00	446.26
1000.00	462.65
1001.00	457.96
1002.00	471.23
1003.00	481.37
1004.00	500.87
1005.00	483.71
1006.00	462.65
1007.00	468.11
1008.00	449.38
1009.00	440.02
1010.00	436.90
1011.00	447.82
1012.00	486.83
1013.00	450.94
1014.00	458.74
1015.00	443.92
1016.00	483.71
1017.00	472.01
1018.00	475.91
1019.00	472.79
1020.00	457.18
1021.00	438.46
1022.00	428.32
1023.00	461.09
1024.00	464.21
1025.00	460.31
1026.00	449.38
1027.00	447.04
1028.00	423.64
1029.00	395.55
1030.00	387.75
1031.00	428.32
1032.00	443.92
1033.00	463.43
1034.00	422.86
1035.00	437.68
1036.00	436.90
1037.00	446.26
1038.00	457.18
1039.00	443.92
1040.00	460.31
1041.00	457.18
1042.00	489.95
1043.00	497.75
1044.00	507.90
1045.00	533.64
1046.00	562.51
1047.00	535.20
1048.00	469.67
1049.00	417.40
1050.00	429.10
1051.00	444.70
1052.00	419.74
1053.00	409.59
1054.00	436.90
1055.00	454.06
1056.00	433.78
1057.00	386.19
1058.00	397.89
1059.00	422.08
1060.00	457.96
1061.00	459.53
1062.00	454.06
1063.00	427.54
1064.00	422.08
1065.00	414.27
1066.00	432.22
1067.00	438.46
1068.00	442.36
1069.00	450.94
1070.00	452.50
1071.00	457.18
1072.00	431.44
1073.00	433.00
1074.00	421.30
1075.00	453.28
1076.00	454.06
1077.00	475.91
1078.00	461.87
1079.00	479.81
1080.00	475.13
1081.00	475.13
1082.00	450.94
1083.00	453.28
1084.00	447.82
1085.00	443.92
1086.00	462.65
1087.00	454.06
1088.00	475.13
1089.00	461.09
1090.00	473.57
1091.00	470.45
1092.00	475.91
1093.00	469.67
1094.00	461.87
1095.00	471.23
1096.00	486.83
1097.00	506.34
1098.00	493.85
1099.00	504.78
1100.00	557.83
1101.00	571.09
1102.00	601.52
1103.00	570.31
1104.00	561.73
1105.00	511.80
1106.00	454.84
1107.00	421.30
1108.00	411.93
1109.00	432.22
1110.00	442.36
1111.00	448.60
1112.00	430.66
1113.00	453.28
1114.00	439.24
1115.00	461.09
1116.00	453.28
1117.00	488.39
1118.00	503.22
1119.00	510.24
1120.00	513.36
1121.00	511.02
1122.00	550.03
1123.00	534.42
1124.00	493.85
1125.00	429.10
1126.00	427.54
1127.00	425.20
1128.00	450.94
1129.00	460.31
1130.00	496.19
1131.00	463.43
1132.00	450.16
1133.00	433.00
1134.00	454.06
1135.00	443.14
1136.00	462.65
1137.00	479.03
1138.00	512.58
1139.00	556.27
1140.00	571.87
1141.00	539.88
1142.00	505.56
1143.00	478.25
1144.00	462.65
1145.00	435.34
1146.00	423.64
1147.00	476.69
1148.00	477.47
1149.00	504.78
1150.00	505.56
1151.00	510.24
1152.00	501.65
1153.00	496.19
1154.00	520.38
1155.00	582.01
1156.00	668.61
1157.00	727.13
1158.00	745.07
1159.00	713.86
1160.00	668.61
1161.00	645.99
1162.00	602.30
1163.00	650.67
1164.00	788.76
1165.00	1058.70
1166.00	1405.10
1167.00	1653.20
1168.00	1728.10
1169.00	1551.00
1170.00	1292.76
1171.00	1018.91
1172.00	846.49
1173.00	713.08
1174.00	652.23
1175.00	632.72
1176.00	620.24
1177.00	610.10
1178.00	575.77
1179.00	571.87
1180.00	571.09
1181.00	612.44
1182.00	610.10
1183.00	638.19
1184.00	633.50
1185.00	648.33
1186.00	654.57
1187.00	642.09
1188.00	649.89
1189.00	676.41
1190.00	738.83
1191.00	819.19
1192.00	850.39
1193.00	891.74
1194.00	876.14
1195.00	848.05
1196.00	822.31
1197.00	831.67
1198.00	919.05
1199.00	1023.59
1200.00	1230.34
1201.00	1389.50
1202.00	1502.62
1203.00	1458.15
1204.00	1377.02
1205.00	1255.31
1206.00	1164.81
1207.00	1101.61
1208.00	1127.36
1209.00	1149.98
1210.00	1196.01
1211.00	1224.10
1212.00	1324.74
1213.00	1470.64
1214.00	1664.90
1215.00	1962.93
1216.00	2495.79
1217.00	5802.19
1218.00	21259.87
1219.00	42026.66
1220.00	59934.10
1221.00	65535.00
1222.00	65535.00
1223.00	65535.00
1224.00	65535.00
1225.00	65431.24
1226.00	56292.22
1227.00	40618.44
1228.00	21930.82
1229.00	10723.55
1230.00	5476.85
1231.00	3109.79
1232.00	2212.59
1233.00	1813.14
1234.00	1646.96
1235.00	1602.49
1236.00	2121.31
1237.00	3779.97
1238.00	7091.04
1239.00	11525.58
1240.00	15279.02
1241.00	16421.98
1242.00	14697.00
1243.00	11281.38
1244.00	7680.08
1245.00	4771.57
1246.00	2783.68
1247.00	1773.35
1248.00	1226.44
1249.00	1000.97
1250.00	908.91
1251.00	933.09
1252.00	1030.62
1253.00	1154.66
1254.00	1296.66
1255.00	1305.24
1256.00	1273.25
1257.00	1146.08
1258.00	1053.24
1259.00	967.42
1260.00	937.77
1261.00	907.35
1262.00	897.99
1263.00	855.86
1264.00	842.59
1265.00	812.95
1266.00	805.14
1267.00	803.58
1268.00	783.30
1269.00	768.48
1270.00	745.07
1271.00	778.62
1272.00	792.66
1273.00	809.05
1274.00	815.29
1275.00	1200.69
1276.00	2987.30
1277.00	7193.25
1278.00	14733.67
1279.00	22971.58
1280.00	28665.32
1281.00	28624.75
1282.00	24416.47
1283.00	17824.74
1284.00	11619.98
1285.00	6679.11
1286.00	3719.11
1287.00	2200.10
1288.00	1371.55
1289.00	1040.76
1290.00	898.77
1291.00	843.37
1292.00	840.25
1293.00	848.83
1294.00	883.16
1295.00	1055.58
1296.00	1724.97
1297.00	2967.02
1298.00	4669.37
1299.00	6164.19
1300.00	6807.84
1301.00	6360.80
1302.00	5198.33
1303.00	3723.79
1304.00	2459.12
1305.00	1536.17
1306.00	1155.44
1307.00	971.32
1308.00	876.92
1309.00	808.26
1310.00	766.14
1311.00	703.72
1312.00	677.98
1313.00	636.63
1314.00	618.68
1315.00	577.33
1316.00	587.47
1317.00	602.30
1318.00	621.80
1319.00	596.06
1320.00	587.47
1321.00	550.03
1322.00	529.74
1323.00	533.64
1324.00	549.25
1325.00	580.45
1326.00	587.47
1327.00	614.00
1328.00	606.20
1329.00	638.97
1330.00	964.30
1331.00	1890.37
1332.00	3539.67
1333.00	5507.28
1334.00	6990.40
1335.00	7375.03
1336.00	6612.01
1337.00	5249.82
1338.00	3725.35
1339.00	2461.46
1340.00	1523.69
1341.00	1050.90
1342.00	791.88
1343.00	693.58
1344.00	619.46
1345.00	631.16
1346.00	628.04
1347.00	620.24
1348.00	613.22
1349.00	637.41
1350.00	650.67
1351.00	649.89
1352.00	665.49
1353.00	677.20
1354.00	685.78
1355.00	699.04
1356.00	762.23
