SpectraSuite Data File
++++++++++++++++++++++++++++++++++++
Date: Thu Nov 16 13:55:13 EST 2017
User: cheriyan
Dark Spectrum Present: No
Reference Spectrum Present: No
Number of Sampled Component Spectra: 1
Spectrometers: USB2+H05261
Integration Time (usec): 100000 (USB2+H05261)
Spectra Averaged: 1 (USB2+H05261)
Boxcar Smoothing: 1 (USB2+H05261)
Correct for Electrical Dark: No (USB2+H05261)
Strobe/Lamp Enabled: No (USB2+H05261)
Correct for Detector Non-linearity: No (USB2+H05261)
Correct for Stray Light: No (USB2+H05261)
Number of Pixels in Processed Spectrum: 2048
>>>>>Begin Processed Spectral Data<<<<<
0.00	367.46
1.00	367.46
2.00	319.87
3.00	259.80
4.00	222.35
5.00	212.99
6.00	248.88
7.00	241.86
8.00	260.58
9.00	246.54
10.00	252.00
11.00	244.20
12.00	262.92
13.00	240.30
14.00	234.83
15.00	209.87
16.00	238.73
17.00	248.88
18.00	272.28
19.00	257.46
20.00	266.04
21.00	256.68
22.00	279.30
23.00	277.74
24.00	276.96
25.00	298.03
26.00	354.98
27.00	401.79
28.00	396.33
29.00	378.39
30.00	367.46
31.00	382.29
32.00	393.21
33.00	401.01
34.00	409.59
35.00	408.03
36.00	411.93
37.00	405.69
38.00	405.69
39.00	408.81
40.00	408.03
41.00	433.78
42.00	428.32
43.00	431.44
44.00	407.25
45.00	416.62
46.00	414.27
47.00	419.74
48.00	419.74
49.00	439.24
50.00	448.60
51.00	436.12
52.00	425.20
53.00	422.86
54.00	424.42
55.00	425.98
56.00	418.96
57.00	429.88
58.00	439.24
59.00	433.00
60.00	420.52
61.00	406.47
62.00	422.08
63.00	454.84
64.00	433.78
65.00	408.81
66.00	373.71
67.00	385.41
68.00	393.21
69.00	382.29
70.00	379.17
71.00	366.68
72.00	386.97
73.00	397.11
74.00	410.37
75.00	401.79
76.00	392.43
77.00	388.53
78.00	411.15
79.00	423.64
80.00	407.25
81.00	370.58
82.00	359.66
83.00	401.01
84.00	422.86
85.00	446.26
86.00	422.86
87.00	433.78
88.00	411.15
89.00	413.49
90.00	411.15
91.00	417.40
92.00	428.32
93.00	418.96
94.00	400.23
95.00	395.55
96.00	386.19
97.00	386.19
98.00	374.49
99.00	375.27
100.00	404.13
101.00	405.69
102.00	403.35
103.00	393.99
104.00	389.31
105.00	403.35
106.00	399.45
107.00	396.33
108.00	388.53
109.00	395.55
110.00	418.96
111.00	415.84
112.00	397.11
113.00	380.73
114.00	366.68
115.00	365.12
116.00	381.51
117.00	393.21
118.00	410.37
119.00	398.67
120.00	411.15
121.00	408.03
122.00	402.57
123.00	412.71
124.00	453.28
125.00	453.28
126.00	422.08
127.00	396.33
128.00	366.68
129.00	382.29
130.00	378.39
131.00	395.55
132.00	380.73
133.00	385.41
134.00	402.57
135.00	436.90
136.00	426.76
137.00	437.68
138.00	432.22
139.00	436.12
140.00	425.20
141.00	412.71
142.00	413.49
143.00	409.59
144.00	445.48
145.00	468.11
146.00	502.43
147.00	474.35
148.00	456.40
149.00	443.14
150.00	441.58
151.00	426.76
152.00	400.23
153.00	387.75
154.00	396.33
155.00	425.98
156.00	411.93
157.00	412.71
158.00	395.55
159.00	424.42
160.00	440.80
161.00	463.43
162.00	456.40
163.00	433.78
164.00	416.62
165.00	397.89
166.00	422.86
167.00	416.62
168.00	426.76
169.00	401.79
170.00	407.25
171.00	413.49
172.00	399.45
173.00	405.69
174.00	408.03
175.00	422.86
176.00	400.23
177.00	396.33
178.00	380.73
179.00	393.21
180.00	404.91
181.00	418.96
182.00	405.69
183.00	390.09
184.00	369.02
185.00	371.36
186.00	366.68
187.00	379.95
188.00	367.46
189.00	372.93
190.00	377.61
191.00	396.33
192.00	419.74
193.00	418.96
194.00	440.80
195.00	450.94
196.00	526.62
197.00	543.78
198.00	546.91
199.00	493.07
200.00	461.87
201.00	437.68
202.00	416.62
203.00	421.30
204.00	404.91
205.00	429.10
206.00	404.91
207.00	433.00
208.00	413.49
209.00	433.78
210.00	426.76
211.00	443.92
212.00	436.90
213.00	423.64
214.00	422.86
215.00	418.96
216.00	426.76
217.00	420.52
218.00	446.26
219.00	458.75
220.00	467.33
221.00	448.60
222.00	428.32
223.00	395.55
224.00	404.13
225.00	409.59
226.00	433.00
227.00	428.32
228.00	419.74
229.00	415.06
230.00	406.47
231.00	394.77
232.00	391.65
233.00	385.41
234.00	412.71
235.00	428.32
236.00	450.94
237.00	461.87
238.00	434.56
239.00	422.08
240.00	407.25
241.00	422.86
242.00	421.30
243.00	421.30
244.00	426.76
245.00	422.08
246.00	409.59
247.00	401.01
248.00	390.09
249.00	395.55
250.00	393.21
251.00	414.27
252.00	420.52
253.00	419.74
254.00	441.58
255.00	453.28
256.00	469.67
257.00	464.99
258.00	435.34
259.00	405.69
260.00	384.63
261.00	386.19
262.00	398.67
263.00	386.97
264.00	411.93
265.00	450.94
266.00	495.41
267.00	530.52
268.00	546.12
269.00	558.61
270.00	541.44
271.00	526.62
272.00	539.10
273.00	578.89
274.00	609.32
275.00	624.14
276.00	607.76
277.00	584.35
278.00	540.66
279.00	525.84
280.00	511.80
281.00	484.49
282.00	426.76
283.00	393.21
284.00	397.89
285.00	443.14
286.00	444.70
287.00	451.72
288.00	438.46
289.00	457.96
290.00	451.72
291.00	436.12
292.00	413.49
293.00	392.43
294.00	370.58
295.00	390.09
296.00	406.47
297.00	432.22
298.00	403.35
299.00	417.40
300.00	384.63
301.00	387.75
302.00	379.17
303.00	425.20
304.00	433.78
305.00	463.43
306.00	487.61
307.00	572.65
308.00	613.22
309.00	636.63
310.00	641.31
311.00	613.22
312.00	583.57
313.00	491.51
314.00	447.82
315.00	449.38
316.00	468.89
317.00	479.03
318.00	438.46
319.00	411.15
320.00	404.91
321.00	434.56
322.00	459.53
323.00	429.88
324.00	404.91
325.00	390.09
326.00	404.13
327.00	417.40
328.00	420.52
329.00	433.00
330.00	425.20
331.00	438.46
332.00	426.76
333.00	413.49
334.00	422.86
335.00	429.10
336.00	443.92
337.00	446.26
338.00	467.33
339.00	453.28
340.00	423.64
341.00	401.01
342.00	405.69
343.00	393.21
344.00	429.10
345.00	455.62
346.00	538.32
347.00	608.54
348.00	699.82
349.00	727.13
350.00	695.14
351.00	614.78
352.00	560.95
353.00	532.08
354.00	520.38
355.00	519.60
356.00	486.83
357.00	492.29
358.00	466.55
359.00	450.16
360.00	436.12
361.00	455.62
362.00	448.60
363.00	446.26
364.00	417.40
365.00	413.49
366.00	393.99
367.00	403.35
368.00	436.90
369.00	454.06
370.00	442.36
371.00	421.30
372.00	408.03
373.00	412.71
374.00	433.78
375.00	448.60
376.00	448.60
377.00	419.74
378.00	386.19
379.00	359.66
380.00	355.76
381.00	383.07
382.00	404.13
383.00	393.21
384.00	399.45
385.00	398.67
386.00	415.06
387.00	397.11
388.00	393.99
389.00	409.59
390.00	422.08
391.00	433.78
392.00	422.08
393.00	429.88
394.00	418.96
395.00	425.20
396.00	398.67
397.00	420.52
398.00	436.90
399.00	467.33
400.00	449.38
401.00	421.30
402.00	395.55
403.00	394.77
404.00	397.11
405.00	410.37
406.00	418.96
407.00	422.08
408.00	412.71
409.00	397.89
410.00	400.23
411.00	412.71
412.00	447.82
413.00	435.34
414.00	408.03
415.00	378.39
416.00	393.21
417.00	413.49
418.00	418.96
419.00	433.78
420.00	429.88
421.00	414.27
422.00	415.06
423.00	422.86
424.00	425.98
425.00	428.32
426.00	418.96
427.00	424.42
428.00	404.13
429.00	436.12
430.00	429.10
431.00	443.14
432.00	393.21
433.00	383.85
434.00	382.29
435.00	404.13
436.00	427.54
437.00	409.59
438.00	433.00
439.00	440.80
440.00	455.62
441.00	431.44
442.00	443.92
443.00	429.10
444.00	440.80
445.00	424.42
446.00	442.36
447.00	451.72
448.00	447.82
449.00	435.34
450.00	413.49
451.00	412.71
452.00	415.06
453.00	429.10
454.00	432.22
455.00	449.38
456.00	431.44
457.00	408.81
458.00	393.99
459.00	411.15
460.00	433.00
461.00	446.26
462.00	440.02
463.00	442.36
464.00	415.84
465.00	417.40
466.00	411.93
467.00	450.16
468.00	453.28
469.00	460.31
470.00	415.06
471.00	382.29
472.00	400.23
473.00	415.84
474.00	444.70
475.00	431.44
476.00	439.24
477.00	441.58
478.00	454.06
479.00	461.09
480.00	464.99
481.00	443.92
482.00	437.68
483.00	424.42
484.00	425.98
485.00	417.40
486.00	413.49
487.00	429.88
488.00	453.28
489.00	457.18
490.00	425.20
491.00	422.08
492.00	431.44
493.00	450.94
494.00	452.50
495.00	443.92
496.00	421.30
497.00	386.97
498.00	395.55
499.00	417.40
500.00	450.94
501.00	447.04
502.00	419.74
503.00	406.47
504.00	411.15
505.00	445.48
506.00	460.31
507.00	478.25
508.00	466.55
509.00	440.02
510.00	413.49
511.00	402.57
512.00	394.77
513.00	398.67
514.00	429.10
515.00	455.62
516.00	478.25
517.00	453.28
518.00	447.82
519.00	425.98
520.00	415.84
521.00	387.75
522.00	403.35
523.00	409.59
524.00	432.22
525.00	408.81
526.00	433.78
527.00	435.34
528.00	449.38
529.00	429.88
530.00	442.36
531.00	431.44
532.00	443.92
533.00	441.58
534.00	455.62
535.00	440.80
536.00	421.30
537.00	424.42
538.00	429.88
539.00	443.14
540.00	433.00
541.00	440.02
542.00	433.00
543.00	421.30
544.00	401.01
545.00	386.97
546.00	386.97
547.00	417.40
548.00	441.58
549.00	448.60
550.00	432.22
551.00	429.88
552.00	408.81
553.00	416.62
554.00	425.98
555.00	439.24
556.00	437.68
557.00	408.03
558.00	423.64
559.00	412.71
560.00	418.18
561.00	424.42
562.00	413.49
563.00	426.76
564.00	406.47
565.00	407.25
566.00	429.10
567.00	446.26
568.00	450.16
569.00	421.30
570.00	412.71
571.00	405.69
572.00	423.64
573.00	416.62
574.00	444.70
575.00	437.68
576.00	429.88
577.00	424.42
578.00	411.15
579.00	393.99
580.00	408.03
581.00	422.08
582.00	437.68
583.00	409.59
584.00	390.09
585.00	397.89
586.00	410.37
587.00	438.46
588.00	428.32
589.00	442.36
590.00	425.98
591.00	440.80
592.00	420.52
593.00	422.86
594.00	412.71
595.00	407.25
596.00	397.89
597.00	387.75
598.00	412.71
599.00	415.84
600.00	444.70
601.00	425.20
602.00	425.98
603.00	423.64
604.00	411.15
605.00	411.93
606.00	415.84
607.00	426.76
608.00	434.56
609.00	395.55
610.00	383.07
611.00	372.15
612.00	382.29
613.00	393.21
614.00	408.03
615.00	418.18
616.00	433.00
617.00	429.88
618.00	462.65
619.00	460.31
620.00	469.67
621.00	433.00
622.00	425.20
623.00	419.74
624.00	430.66
625.00	458.74
626.00	453.28
627.00	448.60
628.00	414.27
629.00	436.12
630.00	439.24
631.00	435.34
632.00	415.06
633.00	425.20
634.00	436.12
635.00	409.59
636.00	419.74
637.00	416.62
638.00	422.08
639.00	418.96
640.00	398.67
641.00	401.79
642.00	386.19
643.00	417.40
644.00	424.42
645.00	441.58
646.00	422.08
647.00	430.66
648.00	404.13
649.00	404.13
650.00	393.99
651.00	411.15
652.00	446.26
653.00	439.24
654.00	478.25
655.00	450.16
656.00	484.49
657.00	440.02
658.00	430.66
659.00	409.59
660.00	393.99
661.00	418.18
662.00	427.54
663.00	432.22
664.00	424.42
665.00	405.69
666.00	401.79
667.00	435.34
668.00	462.65
669.00	482.93
670.00	451.72
671.00	411.15
672.00	404.13
673.00	410.37
674.00	434.56
675.00	436.12
676.00	422.08
677.00	415.06
678.00	408.81
679.00	409.59
680.00	424.42
681.00	437.68
682.00	435.34
683.00	422.86
684.00	411.15
685.00	418.18
686.00	433.00
687.00	448.60
688.00	453.28
689.00	472.01
690.00	469.67
691.00	461.09
692.00	422.86
693.00	407.25
694.00	407.25
695.00	405.69
696.00	399.45
697.00	400.23
698.00	418.96
699.00	426.76
700.00	433.00
701.00	414.27
702.00	409.59
703.00	422.08
704.00	429.88
705.00	429.10
706.00	408.81
707.00	422.08
708.00	442.36
709.00	453.28
710.00	443.92
711.00	433.78
712.00	431.44
713.00	444.70
714.00	432.22
715.00	424.42
716.00	399.45
717.00	431.44
718.00	485.27
719.00	500.87
720.00	519.60
721.00	493.85
722.00	493.07
723.00	486.05
724.00	469.67
725.00	489.95
726.00	482.15
727.00	481.37
728.00	457.96
729.00	432.22
730.00	426.76
731.00	444.70
732.00	439.24
733.00	437.68
734.00	406.47
735.00	457.18
736.00	481.37
737.00	517.26
738.00	497.75
739.00	480.59
740.00	462.65
741.00	435.34
742.00	439.24
743.00	457.18
744.00	457.18
745.00	459.53
746.00	443.14
747.00	442.36
748.00	424.42
749.00	436.90
750.00	462.65
751.00	463.43
752.00	436.12
753.00	420.52
754.00	417.40
755.00	436.90
756.00	436.90
757.00	445.48
758.00	454.06
759.00	475.91
760.00	492.29
761.00	472.79
762.00	471.23
763.00	436.12
764.00	429.88
765.00	425.20
766.00	443.14
767.00	445.48
768.00	436.12
769.00	423.64
770.00	425.20
771.00	418.96
772.00	433.00
773.00	432.22
774.00	422.08
775.00	404.91
776.00	409.59
777.00	425.98
778.00	454.06
779.00	486.83
780.00	508.68
781.00	545.34
782.00	543.00
783.00	601.52
784.00	554.71
785.00	528.18
786.00	461.09
787.00	447.04
788.00	446.26
789.00	450.16
790.00	464.99
791.00	477.47
792.00	447.82
793.00	440.02
794.00	435.34
795.00	444.70
796.00	464.99
797.00	468.11
798.00	475.13
799.00	447.82
800.00	433.00
801.00	442.36
802.00	491.51
803.00	482.15
804.00	474.35
805.00	449.38
806.00	451.72
807.00	447.82
808.00	453.28
809.00	473.57
810.00	488.39
811.00	479.81
812.00	481.37
813.00	449.38
814.00	404.13
815.00	403.35
816.00	400.23
817.00	442.36
818.00	424.42
819.00	443.14
820.00	425.98
821.00	457.18
822.00	457.18
823.00	500.87
824.00	472.01
825.00	469.67
826.00	436.12
827.00	454.06
828.00	453.28
829.00	478.25
830.00	472.79
831.00	458.74
832.00	458.74
833.00	451.72
834.00	457.18
835.00	420.52
836.00	445.48
837.00	448.60
838.00	471.23
839.00	454.06
840.00	466.55
841.00	462.65
842.00	461.09
843.00	451.72
844.00	464.99
845.00	438.46
846.00	454.84
847.00	462.65
848.00	469.67
849.00	463.43
850.00	429.10
851.00	429.88
852.00	416.62
853.00	413.49
854.00	418.96
855.00	413.49
856.00	407.25
857.00	397.89
858.00	390.87
859.00	388.53
860.00	393.99
861.00	403.35
862.00	441.58
863.00	443.14
864.00	447.82
865.00	432.22
866.00	415.84
867.00	410.37
868.00	373.71
869.00	401.79
870.00	397.89
871.00	439.24
872.00	436.90
873.00	454.84
874.00	454.84
875.00	464.21
876.00	465.77
877.00	430.66
878.00	430.66
879.00	419.74
880.00	450.94
881.00	454.84
882.00	471.23
883.00	487.61
884.00	457.18
885.00	436.12
886.00	437.68
887.00	441.58
888.00	458.75
889.00	437.68
890.00	443.14
891.00	453.28
892.00	452.50
893.00	438.46
894.00	440.02
895.00	418.96
896.00	460.31
897.00	425.20
898.00	436.12
899.00	419.74
900.00	435.34
901.00	464.99
902.00	464.99
903.00	512.58
904.00	617.90
905.00	732.59
906.00	802.80
907.00	802.02
908.00	762.23
909.00	1032.18
910.00	1046.22
911.00	1115.66
912.00	893.30
913.00	909.69
914.00	864.44
915.00	742.73
916.00	622.58
917.00	567.19
918.00	533.64
919.00	510.24
920.00	476.69
921.00	466.55
922.00	453.28
923.00	440.02
924.00	459.53
925.00	471.23
926.00	482.15
927.00	461.09
928.00	458.75
929.00	448.60
930.00	440.02
931.00	434.56
932.00	418.96
933.00	418.18
934.00	415.06
935.00	450.16
936.00	475.13
937.00	478.25
938.00	433.00
939.00	442.36
940.00	454.06
941.00	474.35
942.00	437.68
943.00	565.63
944.00	1046.22
945.00	1887.25
946.00	2919.43
947.00	3602.86
948.00	3735.50
949.00	3206.53
950.00	2405.29
951.00	1611.85
952.00	1029.06
953.00	692.02
954.00	535.98
955.00	487.61
956.00	456.40
957.00	439.24
958.00	436.12
959.00	438.46
960.00	450.16
961.00	425.20
962.00	454.06
963.00	455.62
964.00	473.57
965.00	448.60
966.00	435.34
967.00	423.64
968.00	435.34
969.00	463.43
970.00	468.89
971.00	486.83
972.00	438.46
973.00	440.02
974.00	416.62
975.00	429.10
976.00	422.86
977.00	408.03
978.00	422.86
979.00	438.46
980.00	455.62
981.00	461.09
982.00	437.68
983.00	436.12
984.00	413.49
985.00	422.86
986.00	426.76
987.00	433.00
988.00	440.02
989.00	425.20
990.00	433.78
991.00	425.20
992.00	435.34
993.00	457.96
994.00	465.77
995.00	430.66
996.00	429.88
997.00	433.00
998.00	457.18
999.00	433.78
1000.00	440.80
1001.00	451.72
1002.00	449.38
1003.00	435.34
1004.00	440.02
1005.00	445.48
1006.00	454.84
1007.00	448.60
1008.00	441.58
1009.00	449.38
1010.00	464.99
1011.00	468.89
1012.00	464.99
1013.00	432.22
1014.00	440.02
1015.00	421.30
1016.00	414.27
1017.00	422.86
1018.00	443.14
1019.00	466.55
1020.00	465.77
1021.00	461.09
1022.00	475.91
1023.00	469.67
1024.00	468.11
1025.00	466.55
1026.00	450.16
1027.00	459.53
1028.00	453.28
1029.00	472.79
1030.00	463.43
1031.00	436.90
1032.00	429.88
1033.00	426.76
1034.00	442.36
1035.00	439.24
1036.00	461.87
1037.00	474.35
1038.00	470.45
1039.00	436.12
1040.00	433.00
1041.00	453.28
1042.00	500.87
1043.00	524.28
1044.00	517.26
1045.00	541.44
1046.00	511.80
1047.00	511.02
1048.00	457.96
1049.00	452.50
1050.00	429.10
1051.00	417.40
1052.00	422.86
1053.00	450.94
1054.00	443.14
1055.00	440.80
1056.00	424.42
1057.00	433.00
1058.00	439.24
1059.00	440.80
1060.00	440.80
1061.00	430.66
1062.00	427.54
1063.00	435.34
1064.00	454.84
1065.00	450.16
1066.00	450.16
1067.00	448.60
1068.00	470.45
1069.00	457.18
1070.00	431.44
1071.00	435.34
1072.00	436.90
1073.00	437.68
1074.00	409.59
1075.00	413.49
1076.00	425.98
1077.00	443.14
1078.00	446.26
1079.00	479.81
1080.00	468.89
1081.00	463.43
1082.00	418.18
1083.00	429.10
1084.00	420.52
1085.00	438.46
1086.00	454.06
1087.00	475.13
1088.00	473.57
1089.00	440.80
1090.00	438.46
1091.00	423.64
1092.00	438.46
1093.00	446.26
1094.00	477.47
1095.00	502.43
1096.00	500.87
1097.00	510.24
1098.00	493.07
1099.00	521.94
1100.00	524.28
1101.00	538.32
1102.00	539.10
1103.00	547.69
1104.00	557.83
1105.00	544.56
1106.00	507.12
1107.00	464.99
1108.00	465.77
1109.00	457.18
1110.00	473.57
1111.00	419.74
1112.00	403.35
1113.00	373.71
1114.00	416.62
1115.00	456.40
1116.00	479.81
1117.00	474.35
1118.00	463.43
1119.00	482.15
1120.00	521.16
1121.00	535.98
1122.00	535.98
1123.00	505.56
1124.00	487.61
1125.00	473.57
1126.00	468.89
1127.00	468.11
1128.00	447.82
1129.00	436.90
1130.00	448.60
1131.00	455.62
1132.00	472.01
1133.00	486.83
1134.00	500.09
1135.00	487.61
1136.00	452.50
1137.00	484.49
1138.00	486.05
1139.00	518.04
1140.00	498.53
1141.00	515.70
1142.00	500.87
1143.00	474.35
1144.00	447.82
1145.00	426.76
1146.00	457.96
1147.00	481.37
1148.00	499.31
1149.00	481.37
1150.00	482.93
1151.00	514.14
1152.00	544.56
1153.00	539.10
1154.00	557.05
1155.00	578.11
1156.00	642.87
1157.00	686.56
1158.00	698.26
1159.00	685.00
1160.00	621.80
1161.00	590.60
1162.00	556.27
1163.00	610.10
1164.00	784.86
1165.00	1076.65
1166.00	1430.07
1167.00	1653.98
1168.00	1699.23
1169.00	1522.91
1170.00	1277.93
1171.00	1028.28
1172.00	843.37
1173.00	702.16
1174.00	619.46
1175.00	590.60
1176.00	582.01
1177.00	596.84
1178.00	610.10
1179.00	629.60
1180.00	606.20
1181.00	598.40
1182.00	589.03
1183.00	620.24
1184.00	653.01
1185.00	650.67
1186.00	674.85
1187.00	667.05
1188.00	705.28
1189.00	725.57
1190.00	772.38
1191.00	830.11
1192.00	894.08
1193.00	927.63
1194.00	916.71
1195.00	874.58
1196.00	819.19
1197.00	823.09
1198.00	874.58
1199.00	1039.98
1200.00	1248.29
1201.00	1439.43
1202.00	1536.95
1203.00	1480.78
1204.00	1369.99
1205.00	1223.32
1206.00	1166.37
1207.00	1125.80
1208.00	1136.72
1209.00	1116.44
1210.00	1149.20
1211.00	1178.85
1212.00	1328.64
1213.00	1475.32
1214.00	1710.93
1215.00	1998.82
1216.00	2509.05
1217.00	5731.19
1218.00	21070.28
1219.00	41857.36
1220.00	59828.77
1221.00	65535.00
1222.00	65535.00
1223.00	65535.00
1224.00	65535.00
1225.00	65323.57
1226.00	56214.21
1227.00	40686.31
1228.00	22043.95
1229.00	10858.53
1230.00	5473.73
1231.00	3200.29
1232.00	2277.34
1233.00	1937.18
1234.00	1751.50
1235.00	1699.23
1236.00	2172.02
1237.00	3806.49
1238.00	7073.10
1239.00	11511.53
1240.00	15153.41
1241.00	16199.63
1242.00	14466.07
1243.00	11191.66
1244.00	7715.97
1245.00	4816.04
1246.00	2806.30
1247.00	1756.18
1248.00	1217.08
1249.00	975.22
1250.00	928.41
1251.00	966.64
1252.00	1088.35
1253.00	1200.69
1254.00	1257.65
1255.00	1252.97
1256.00	1225.66
1257.00	1138.28
1258.00	1096.15
1259.00	993.95
1260.00	958.06
1261.00	901.89
1262.00	886.28
1263.00	881.60
1264.00	862.88
1265.00	822.31
1266.00	787.20
1267.00	782.52
1268.00	802.02
1269.00	791.10
1270.00	761.45
1271.00	767.70
1272.00	795.00
1273.00	842.59
1274.00	884.72
1275.00	1239.70
1276.00	2988.86
1277.00	7221.33
1278.00	14663.46
1279.00	22968.46
1280.00	28498.36
1281.00	28550.63
1282.00	24356.39
1283.00	17919.14
1284.00	11755.73
1285.00	6698.61
1286.00	3680.10
1287.00	2133.79
1288.00	1348.93
1289.00	1007.99
1290.00	885.50
1291.00	843.37
1292.00	862.10
1293.00	879.26
1294.00	927.63
1295.00	1115.66
1296.00	1724.97
1297.00	2945.17
1298.00	4664.69
1299.00	6116.60
1300.00	6721.24
1301.00	6207.88
1302.00	5073.50
1303.00	3695.71
1304.00	2519.98
1305.00	1692.99
1306.00	1229.56
1307.00	1029.06
1308.00	895.64
1309.00	845.71
1310.00	767.70
1311.00	698.26
1312.00	633.50
1313.00	588.25
1314.00	574.99
1315.00	596.06
1316.00	602.30
1317.00	610.88
1318.00	591.38
1319.00	583.57
1320.00	539.88
1321.00	500.09
1322.00	511.02
1323.00	523.50
1324.00	571.09
1325.00	566.41
1326.00	585.13
1327.00	562.51
1328.00	588.25
1329.00	684.22
1330.00	1064.94
1331.00	1935.62
1332.00	3456.19
1333.00	5388.69
1334.00	6928.77
1335.00	7325.88
1336.00	6632.30
1337.00	5235.78
1338.00	3761.24
1339.00	2438.84
1340.00	1497.16
1341.00	1036.86
1342.00	786.42
1343.00	727.91
1344.00	656.13
1345.00	649.89
1346.00	615.56
1347.00	595.28
1348.00	589.03
1349.00	595.28
1350.00	631.16
1351.00	645.21
1352.00	702.16
1353.00	709.96
1354.00	728.69
1355.00	727.91
1356.00	780.18
