SpectraSuite Data File
++++++++++++++++++++++++++++++++++++
Date: Thu Nov 16 13:55:20 EST 2017
User: cheriyan
Dark Spectrum Present: No
Reference Spectrum Present: No
Number of Sampled Component Spectra: 1
Spectrometers: USB2+H05261
Integration Time (usec): 100000 (USB2+H05261)
Spectra Averaged: 1 (USB2+H05261)
Boxcar Smoothing: 1 (USB2+H05261)
Correct for Electrical Dark: No (USB2+H05261)
Strobe/Lamp Enabled: No (USB2+H05261)
Correct for Detector Non-linearity: No (USB2+H05261)
Correct for Stray Light: No (USB2+H05261)
Number of Pixels in Processed Spectrum: 2048
>>>>>Begin Processed Spectral Data<<<<<
0.00	346.40
1.00	346.40
2.00	319.09
3.00	276.18
4.00	255.12
5.00	255.90
6.00	265.26
7.00	260.58
8.00	260.58
9.00	257.46
10.00	237.95
11.00	216.89
12.00	231.71
13.00	233.27
14.00	220.01
15.00	205.19
16.00	216.89
17.00	260.58
18.00	252.00
19.00	263.70
20.00	277.74
21.00	318.31
22.00	318.31
23.00	311.29
24.00	302.71
25.00	321.43
26.00	331.58
27.00	359.66
28.00	365.90
29.00	368.24
30.00	371.36
31.00	358.10
32.00	351.08
33.00	356.54
34.00	362.78
35.00	365.12
36.00	361.22
37.00	375.27
38.00	416.62
39.00	444.70
40.00	449.38
41.00	457.18
42.00	441.58
43.00	435.34
44.00	407.25
45.00	397.89
46.00	421.30
47.00	451.72
48.00	454.84
49.00	448.60
50.00	401.79
51.00	392.43
52.00	394.77
53.00	410.37
54.00	411.15
55.00	387.75
56.00	401.01
57.00	423.64
58.00	447.04
59.00	453.28
60.00	430.66
61.00	411.93
62.00	399.45
63.00	404.91
64.00	426.76
65.00	426.76
66.00	415.06
67.00	397.89
68.00	377.61
69.00	383.07
70.00	415.84
71.00	437.68
72.00	433.78
73.00	397.11
74.00	381.51
75.00	383.85
76.00	375.27
77.00	383.07
78.00	384.63
79.00	389.31
80.00	385.41
81.00	376.05
82.00	354.98
83.00	370.58
84.00	389.31
85.00	392.43
86.00	398.67
87.00	392.43
88.00	435.34
89.00	415.06
90.00	437.68
91.00	425.98
92.00	415.06
93.00	407.25
94.00	393.99
95.00	393.99
96.00	386.97
97.00	401.79
98.00	422.08
99.00	423.64
100.00	418.96
101.00	419.74
102.00	415.06
103.00	413.49
104.00	415.84
105.00	389.31
106.00	372.15
107.00	354.98
108.00	361.22
109.00	382.29
110.00	381.51
111.00	379.95
112.00	376.05
113.00	389.31
114.00	403.35
115.00	414.27
116.00	433.00
117.00	415.06
118.00	386.19
119.00	369.80
120.00	388.53
121.00	403.35
122.00	403.35
123.00	396.33
124.00	397.89
125.00	413.49
126.00	411.15
127.00	406.47
128.00	377.61
129.00	405.69
130.00	397.89
131.00	422.08
132.00	393.21
133.00	411.93
134.00	401.01
135.00	443.92
136.00	440.02
137.00	440.80
138.00	383.07
139.00	377.61
140.00	369.02
141.00	412.71
142.00	429.10
143.00	423.64
144.00	424.42
145.00	442.36
146.00	472.79
147.00	496.97
148.00	499.31
149.00	483.71
150.00	415.06
151.00	376.83
152.00	367.46
153.00	393.21
154.00	423.64
155.00	417.40
156.00	422.86
157.00	399.45
158.00	389.31
159.00	383.85
160.00	362.00
161.00	393.99
162.00	393.21
163.00	415.06
164.00	406.47
165.00	411.15
166.00	409.59
167.00	424.42
168.00	396.33
169.00	422.86
170.00	403.35
171.00	425.98
172.00	403.35
173.00	401.01
174.00	393.21
175.00	399.45
176.00	424.42
177.00	447.82
178.00	448.60
179.00	421.30
180.00	397.11
181.00	408.03
182.00	430.66
183.00	430.66
184.00	419.74
185.00	409.59
186.00	435.34
187.00	408.03
188.00	408.03
189.00	372.93
190.00	410.37
191.00	393.99
192.00	411.93
193.00	405.69
194.00	446.26
195.00	467.33
196.00	509.46
197.00	503.22
198.00	514.14
199.00	479.03
200.00	443.14
201.00	435.34
202.00	435.34
203.00	430.66
204.00	415.84
205.00	416.62
206.00	430.66
207.00	425.20
208.00	405.69
209.00	394.77
210.00	407.25
211.00	416.62
212.00	430.66
213.00	446.26
214.00	450.94
215.00	462.65
216.00	454.06
217.00	436.12
218.00	429.88
219.00	411.15
220.00	408.03
221.00	390.09
222.00	397.11
223.00	416.62
224.00	413.49
225.00	408.03
226.00	394.77
227.00	403.35
228.00	404.91
229.00	405.69
230.00	393.21
231.00	392.43
232.00	401.01
233.00	433.00
234.00	427.54
235.00	419.74
236.00	384.63
237.00	390.09
238.00	385.41
239.00	411.93
240.00	428.32
241.00	457.96
242.00	450.94
243.00	454.06
244.00	432.22
245.00	432.22
246.00	408.81
247.00	401.01
248.00	421.30
249.00	416.62
250.00	405.69
251.00	376.05
252.00	390.87
253.00	433.78
254.00	456.40
255.00	442.36
256.00	440.80
257.00	454.84
258.00	498.53
259.00	472.79
260.00	450.16
261.00	403.35
262.00	411.15
263.00	427.54
264.00	451.72
265.00	452.50
266.00	480.59
267.00	525.84
268.00	568.75
269.00	550.03
270.00	546.12
271.00	550.81
272.00	593.72
273.00	599.18
274.00	603.08
275.00	592.16
276.00	563.29
277.00	548.47
278.00	536.76
279.00	546.12
280.00	540.66
281.00	511.80
282.00	502.43
283.00	467.33
284.00	460.31
285.00	424.42
286.00	405.69
287.00	390.87
288.00	410.37
289.00	420.52
290.00	423.64
291.00	398.67
292.00	419.74
293.00	409.59
294.00	406.47
295.00	382.29
296.00	397.89
297.00	399.45
298.00	425.20
299.00	429.88
300.00	425.98
301.00	405.69
302.00	370.58
303.00	372.93
304.00	373.71
305.00	425.98
306.00	469.67
307.00	543.00
308.00	603.08
309.00	665.49
310.00	666.27
311.00	636.63
312.00	571.09
313.00	499.31
314.00	478.25
315.00	464.99
316.00	489.17
317.00	440.80
318.00	419.74
319.00	395.55
320.00	392.43
321.00	395.55
322.00	390.87
323.00	411.93
324.00	411.15
325.00	415.84
326.00	425.98
327.00	452.50
328.00	443.92
329.00	420.52
330.00	429.10
331.00	444.70
332.00	450.94
333.00	436.12
334.00	429.10
335.00	450.16
336.00	427.54
337.00	418.18
338.00	372.15
339.00	384.63
340.00	396.33
341.00	425.20
342.00	418.96
343.00	408.81
344.00	434.56
345.00	459.53
346.00	539.10
347.00	609.32
348.00	707.62
349.00	733.37
350.00	719.32
351.00	644.43
352.00	589.03
353.00	543.00
354.00	522.72
355.00	518.04
356.00	497.75
357.00	507.12
358.00	477.47
359.00	450.94
360.00	409.59
361.00	420.52
362.00	440.80
363.00	447.04
364.00	430.66
365.00	430.66
366.00	422.86
367.00	393.99
368.00	411.93
369.00	425.20
370.00	469.67
371.00	463.43
372.00	460.31
373.00	441.58
374.00	418.96
375.00	407.25
376.00	410.37
377.00	390.09
378.00	371.36
379.00	351.86
380.00	369.80
381.00	383.07
382.00	415.06
383.00	429.88
384.00	441.58
385.00	436.90
386.00	419.74
387.00	411.15
388.00	416.62
389.00	429.10
390.00	457.18
391.00	457.18
392.00	449.38
393.00	415.84
394.00	390.87
395.00	419.74
396.00	469.67
397.00	486.05
398.00	465.77
399.00	434.56
400.00	419.74
401.00	397.89
402.00	379.95
403.00	399.45
404.00	421.30
405.00	433.00
406.00	433.00
407.00	403.35
408.00	430.66
409.00	425.98
410.00	428.32
411.00	399.45
412.00	406.47
413.00	421.30
414.00	421.30
415.00	428.32
416.00	424.42
417.00	408.81
418.00	384.63
419.00	387.75
420.00	391.65
421.00	400.23
422.00	418.18
423.00	417.40
424.00	403.35
425.00	394.77
426.00	417.40
427.00	434.56
428.00	403.35
429.00	401.79
430.00	383.07
431.00	413.49
432.00	408.03
433.00	418.18
434.00	433.00
435.00	415.84
436.00	409.59
437.00	383.07
438.00	411.93
439.00	412.71
440.00	408.81
441.00	414.27
442.00	452.50
443.00	460.31
444.00	457.18
445.00	459.53
446.00	471.23
447.00	443.14
448.00	405.69
449.00	390.87
450.00	398.67
451.00	394.77
452.00	423.64
453.00	422.08
454.00	441.58
455.00	414.27
456.00	439.24
457.00	441.58
458.00	443.14
459.00	421.30
460.00	421.30
461.00	421.30
462.00	443.92
463.00	430.66
464.00	443.92
465.00	450.16
466.00	425.20
467.00	406.47
468.00	399.45
469.00	429.88
470.00	436.12
471.00	404.13
472.00	418.18
473.00	421.30
474.00	405.69
475.00	361.22
476.00	351.86
477.00	386.97
478.00	428.32
479.00	425.98
480.00	425.98
481.00	413.49
482.00	404.91
483.00	397.11
484.00	393.99
485.00	422.86
486.00	441.58
487.00	440.80
488.00	443.14
489.00	425.20
490.00	457.96
491.00	446.26
492.00	457.96
493.00	445.48
494.00	458.75
495.00	444.70
496.00	436.90
497.00	429.88
498.00	459.53
499.00	473.57
500.00	489.95
501.00	490.73
502.00	458.75
503.00	457.18
504.00	432.22
505.00	464.99
506.00	475.13
507.00	485.27
508.00	472.79
509.00	448.60
510.00	443.14
511.00	443.14
512.00	444.70
513.00	451.72
514.00	428.32
515.00	408.03
516.00	421.30
517.00	431.44
518.00	437.68
519.00	418.96
520.00	411.15
521.00	408.03
522.00	397.89
523.00	399.45
524.00	404.13
525.00	410.37
526.00	419.74
527.00	403.35
528.00	401.79
529.00	393.21
530.00	395.55
531.00	419.74
532.00	429.10
533.00	464.21
534.00	433.78
535.00	422.86
536.00	429.10
537.00	449.38
538.00	461.87
539.00	454.06
540.00	444.70
541.00	422.08
542.00	393.99
543.00	387.75
544.00	408.81
545.00	418.96
546.00	419.74
547.00	428.32
548.00	421.30
549.00	450.94
550.00	436.12
551.00	454.06
552.00	433.00
553.00	449.38
554.00	453.28
555.00	447.04
556.00	449.38
557.00	421.30
558.00	408.81
559.00	401.79
560.00	429.88
561.00	450.94
562.00	410.37
563.00	397.11
564.00	378.39
565.00	408.81
566.00	423.64
567.00	458.75
568.00	443.92
569.00	415.06
570.00	386.19
571.00	418.96
572.00	417.40
573.00	437.68
574.00	426.76
575.00	468.11
576.00	454.84
577.00	429.88
578.00	425.20
579.00	436.90
580.00	468.89
581.00	441.58
582.00	419.74
583.00	411.15
584.00	415.06
585.00	448.60
586.00	446.26
587.00	450.94
588.00	425.98
589.00	437.68
590.00	433.00
591.00	451.72
592.00	429.88
593.00	468.11
594.00	472.01
595.00	475.13
596.00	441.58
597.00	404.91
598.00	400.23
599.00	387.75
600.00	408.81
601.00	414.27
602.00	423.64
603.00	420.52
604.00	409.59
605.00	408.03
606.00	436.12
607.00	451.72
608.00	461.87
609.00	447.04
610.00	454.84
611.00	454.84
612.00	438.46
613.00	421.30
614.00	415.06
615.00	419.74
616.00	425.20
617.00	404.13
618.00	411.93
619.00	410.37
620.00	421.30
621.00	412.71
622.00	445.48
623.00	449.38
624.00	457.96
625.00	462.65
626.00	487.61
627.00	478.25
628.00	457.96
629.00	459.53
630.00	443.92
631.00	447.04
632.00	436.12
633.00	434.56
634.00	422.86
635.00	415.06
636.00	444.70
637.00	450.94
638.00	461.87
639.00	461.09
640.00	454.06
641.00	457.96
642.00	459.53
643.00	450.94
644.00	413.49
645.00	379.95
646.00	370.58
647.00	408.03
648.00	426.76
649.00	464.99
650.00	479.81
651.00	490.73
652.00	470.45
653.00	450.94
654.00	479.81
655.00	483.71
656.00	474.35
657.00	422.86
658.00	422.86
659.00	419.74
660.00	417.40
661.00	399.45
662.00	417.40
663.00	433.00
664.00	454.06
665.00	450.16
666.00	419.74
667.00	396.33
668.00	375.27
669.00	412.71
670.00	439.24
671.00	442.36
672.00	424.42
673.00	403.35
674.00	402.57
675.00	421.30
676.00	424.42
677.00	425.98
678.00	410.37
679.00	418.96
680.00	436.12
681.00	458.75
682.00	442.36
683.00	428.32
684.00	407.25
685.00	418.18
686.00	417.40
687.00	419.74
688.00	427.54
689.00	426.76
690.00	447.04
691.00	426.76
692.00	427.54
693.00	394.77
694.00	414.27
695.00	417.40
696.00	426.76
697.00	447.04
698.00	447.04
699.00	444.70
700.00	454.06
701.00	470.45
702.00	468.11
703.00	440.80
704.00	405.69
705.00	412.71
706.00	408.81
707.00	401.79
708.00	386.97
709.00	411.93
710.00	423.64
711.00	444.70
712.00	401.79
713.00	428.32
714.00	416.62
715.00	438.46
716.00	435.34
717.00	431.44
718.00	472.01
719.00	464.21
720.00	474.35
721.00	423.64
722.00	422.86
723.00	404.13
724.00	411.15
725.00	429.10
726.00	463.43
727.00	462.65
728.00	443.14
729.00	422.86
730.00	432.22
731.00	435.34
732.00	450.16
733.00	451.72
734.00	461.87
735.00	496.97
736.00	525.06
737.00	537.54
738.00	529.74
739.00	499.31
740.00	473.57
741.00	445.48
742.00	428.32
743.00	471.23
744.00	445.48
745.00	447.82
746.00	413.49
747.00	439.24
748.00	428.32
749.00	417.40
750.00	411.93
751.00	448.60
752.00	433.78
753.00	418.18
754.00	412.71
755.00	422.08
756.00	446.26
757.00	444.70
758.00	480.59
759.00	477.47
760.00	481.37
761.00	462.65
762.00	484.49
763.00	480.59
764.00	475.13
765.00	437.68
766.00	425.98
767.00	417.40
768.00	436.90
769.00	400.23
770.00	409.59
771.00	408.81
772.00	429.10
773.00	439.24
774.00	429.88
775.00	468.89
776.00	463.43
777.00	472.79
778.00	455.62
779.00	480.59
780.00	512.58
781.00	537.54
782.00	543.78
783.00	583.57
784.00	557.05
785.00	550.03
786.00	475.91
787.00	451.72
788.00	419.74
789.00	422.86
790.00	454.06
791.00	437.68
792.00	418.18
793.00	392.43
794.00	418.96
795.00	409.59
796.00	414.27
797.00	408.03
798.00	433.00
799.00	437.68
800.00	436.90
801.00	443.92
802.00	436.12
803.00	443.14
804.00	434.56
805.00	439.24
806.00	426.76
807.00	419.74
808.00	435.34
809.00	439.24
810.00	438.46
811.00	418.18
812.00	408.81
813.00	401.01
814.00	410.37
815.00	411.15
816.00	423.64
817.00	443.14
818.00	461.87
819.00	466.55
820.00	443.92
821.00	473.57
822.00	511.80
823.00	545.34
824.00	496.97
825.00	463.43
826.00	430.66
827.00	442.36
828.00	418.96
829.00	429.88
830.00	442.36
831.00	448.60
832.00	456.40
833.00	455.62
834.00	482.15
835.00	500.87
836.00	488.39
837.00	461.87
838.00	425.20
839.00	413.49
840.00	425.98
841.00	438.46
842.00	461.87
843.00	461.87
844.00	482.93
845.00	478.25
846.00	465.77
847.00	452.50
848.00	446.26
849.00	474.35
850.00	457.96
851.00	464.21
852.00	434.56
853.00	430.66
854.00	410.37
855.00	404.13
856.00	416.62
857.00	415.06
858.00	419.74
859.00	402.57
860.00	426.76
861.00	445.48
862.00	494.63
863.00	470.45
864.00	479.81
865.00	418.96
866.00	436.12
867.00	415.06
868.00	405.69
869.00	383.07
870.00	376.05
871.00	392.43
872.00	429.88
873.00	440.02
874.00	482.15
875.00	444.70
876.00	461.87
877.00	436.12
878.00	469.67
879.00	473.57
880.00	467.33
881.00	484.49
882.00	454.06
883.00	472.01
884.00	431.44
885.00	440.80
886.00	433.78
887.00	437.68
888.00	429.10
889.00	447.82
890.00	458.74
891.00	474.35
892.00	424.42
893.00	405.69
894.00	391.65
895.00	440.02
896.00	458.74
897.00	473.57
898.00	446.26
899.00	452.50
900.00	445.48
901.00	465.77
902.00	495.41
903.00	562.51
904.00	660.03
905.00	781.74
906.00	843.37
907.00	796.56
908.00	734.15
909.00	992.39
910.00	1043.88
911.00	1093.81
912.00	850.39
913.00	879.26
914.00	826.21
915.00	739.61
916.00	614.00
917.00	545.34
918.00	495.41
919.00	494.63
920.00	475.13
921.00	476.69
922.00	467.33
923.00	457.96
924.00	461.87
925.00	446.26
926.00	453.28
927.00	465.77
928.00	489.95
929.00	496.97
930.00	484.49
931.00	464.21
932.00	460.31
933.00	477.47
934.00	471.23
935.00	489.95
936.00	474.35
937.00	495.41
938.00	483.71
939.00	457.96
940.00	437.68
941.00	428.32
942.00	485.27
943.00	605.42
944.00	1054.02
945.00	1858.39
946.00	2896.80
947.00	3628.61
948.00	3644.21
949.00	3153.48
950.00	2339.76
951.00	1671.92
952.00	1079.77
953.00	763.79
954.00	606.98
955.00	571.09
956.00	492.29
957.00	472.01
958.00	457.96
959.00	462.65
960.00	447.04
961.00	422.08
962.00	429.10
963.00	430.66
964.00	428.32
965.00	445.48
966.00	443.92
967.00	453.28
968.00	460.31
969.00	479.81
970.00	499.31
971.00	464.21
972.00	455.62
973.00	450.16
974.00	461.87
975.00	436.12
976.00	454.84
977.00	460.31
978.00	468.11
979.00	447.04
980.00	468.11
981.00	461.09
982.00	429.10
983.00	416.62
984.00	418.18
985.00	435.34
986.00	420.52
987.00	453.28
988.00	474.35
989.00	465.77
990.00	443.92
991.00	404.91
992.00	425.20
993.00	412.71
994.00	447.82
995.00	439.24
996.00	449.38
997.00	430.66
998.00	434.56
999.00	453.28
1000.00	474.35
1001.00	481.37
1002.00	490.73
1003.00	478.25
1004.00	489.95
1005.00	480.59
1006.00	483.71
1007.00	479.81
1008.00	418.18
1009.00	423.64
1010.00	428.32
1011.00	486.05
1012.00	492.29
1013.00	489.95
1014.00	473.57
1015.00	453.28
1016.00	429.88
1017.00	417.40
1018.00	421.30
1019.00	436.90
1020.00	436.12
1021.00	439.24
1022.00	429.10
1023.00	434.56
1024.00	440.80
1025.00	449.38
1026.00	464.99
1027.00	467.33
1028.00	440.02
1029.00	422.08
1030.00	411.15
1031.00	423.64
1032.00	440.80
1033.00	445.48
1034.00	462.65
1035.00	461.87
1036.00	448.60
1037.00	445.48
1038.00	438.46
1039.00	463.43
1040.00	482.93
1041.00	498.53
1042.00	518.82
1043.00	543.78
1044.00	555.49
1045.00	557.05
1046.00	490.73
1047.00	487.61
1048.00	449.38
1049.00	484.49
1050.00	465.77
1051.00	473.57
1052.00	459.53
1053.00	463.43
1054.00	433.78
1055.00	422.86
1056.00	430.66
1057.00	433.00
1058.00	416.62
1059.00	399.45
1060.00	407.25
1061.00	447.04
1062.00	427.54
1063.00	456.40
1064.00	454.06
1065.00	459.53
1066.00	454.84
1067.00	437.68
1068.00	440.02
1069.00	418.18
1070.00	409.59
1071.00	390.09
1072.00	398.67
1073.00	403.35
1074.00	446.26
1075.00	442.36
1076.00	475.91
1077.00	454.06
1078.00	461.87
1079.00	467.33
1080.00	466.55
1081.00	451.72
1082.00	412.71
1083.00	411.15
1084.00	432.22
1085.00	448.60
1086.00	484.49
1087.00	450.94
1088.00	425.98
1089.00	429.10
1090.00	455.62
1091.00	465.77
1092.00	438.46
1093.00	426.76
1094.00	433.78
1095.00	463.43
1096.00	456.40
1097.00	472.01
1098.00	443.92
1099.00	486.05
1100.00	515.70
1101.00	584.35
1102.00	596.84
1103.00	574.99
1104.00	514.92
1105.00	484.49
1106.00	475.91
1107.00	461.09
1108.00	468.89
1109.00	436.12
1110.00	454.84
1111.00	440.80
1112.00	461.87
1113.00	464.21
1114.00	446.26
1115.00	443.14
1116.00	446.26
1117.00	475.13
1118.00	469.67
1119.00	462.65
1120.00	474.35
1121.00	517.26
1122.00	550.03
1123.00	547.69
1124.00	563.29
1125.00	528.96
1126.00	509.46
1127.00	456.40
1128.00	447.04
1129.00	437.68
1130.00	461.87
1131.00	462.65
1132.00	489.95
1133.00	481.37
1134.00	510.24
1135.00	496.97
1136.00	482.93
1137.00	475.91
1138.00	504.00
1139.00	552.37
1140.00	567.97
1141.00	540.66
1142.00	501.65
1143.00	469.67
1144.00	485.27
1145.00	457.96
1146.00	479.03
1147.00	449.38
1148.00	466.55
1149.00	466.55
1150.00	492.29
1151.00	541.44
1152.00	557.05
1153.00	561.73
1154.00	557.05
1155.00	617.12
1156.00	694.36
1157.00	763.01
1158.00	755.99
1159.00	706.06
1160.00	634.29
1161.00	603.08
1162.00	586.69
1163.00	632.72
1164.00	758.33
1165.00	1045.44
1166.00	1392.62
1167.00	1620.43
1168.00	1671.14
1169.00	1540.07
1170.00	1314.60
1171.00	1046.22
1172.00	823.87
1173.00	684.22
1174.00	594.50
1175.00	544.56
1176.00	541.44
1177.00	571.87
1178.00	596.06
1179.00	585.91
1180.00	585.91
1181.00	596.84
1182.00	595.28
1183.00	616.34
1184.00	600.74
1185.00	641.31
1186.00	632.72
1187.00	666.27
1188.00	674.85
1189.00	735.71
1190.00	782.52
1191.00	867.56
1192.00	899.55
1193.00	934.65
1194.00	912.81
1195.00	884.72
1196.00	842.59
1197.00	821.53
1198.00	867.56
1199.00	1015.79
1200.00	1225.66
1201.00	1437.09
1202.00	1529.93
1203.00	1524.47
1204.00	1429.29
1205.00	1306.80
1206.00	1170.27
1207.00	1105.51
1208.00	1100.05
1209.00	1122.68
1210.00	1184.31
1211.00	1249.07
1212.00	1368.43
1213.00	1502.62
1214.00	1701.57
1215.00	2014.42
1216.00	2512.17
1217.00	5698.42
1218.00	21107.73
1219.00	41888.57
1220.00	59897.43
1221.00	65535.00
1222.00	65535.00
1223.00	65535.00
1224.00	65535.00
1225.00	65368.82
1226.00	56225.13
1227.00	40577.87
1228.00	21927.70
1229.00	10719.65
1230.00	5465.93
1231.00	3152.70
1232.00	2246.91
1233.00	1848.24
1234.00	1622.77
1235.00	1633.69
1236.00	2158.75
1237.00	3901.67
1238.00	7207.29
1239.00	11633.24
1240.00	15287.60
1241.00	16340.84
1242.00	14590.12
1243.00	11232.23
1244.00	7685.54
1245.00	4794.98
1246.00	2772.75
1247.00	1725.76
1248.00	1189.77
1249.00	986.15
1250.00	955.72
1251.00	981.46
1252.00	1074.31
1253.00	1164.81
1254.00	1235.80
1255.00	1252.97
1256.00	1207.72
1257.00	1137.50
1258.00	1046.22
1259.00	981.46
1260.00	932.31
1261.00	902.67
1262.00	894.08
1263.00	865.22
1264.00	835.57
1265.00	804.36
1266.00	809.05
1267.00	792.66
1268.00	775.50
1269.00	774.72
1270.00	799.68
1271.00	825.43
1272.00	806.70
1273.00	826.21
1274.00	874.58
1275.00	1259.21
1276.00	3001.35
1277.00	7190.91
1278.00	14674.38
1279.00	22899.80
1280.00	28560.00
1281.00	28673.90
1282.00	24501.51
1283.00	18016.66
1284.00	11736.23
1285.00	6700.17
1286.00	3630.95
1287.00	2070.59
1288.00	1330.20
1289.00	1003.31
1290.00	883.16
1291.00	886.28
1292.00	883.94
1293.00	888.62
1294.00	879.26
1295.00	1081.33
1296.00	1699.23
1297.00	2957.66
1298.00	4693.55
1299.00	6211.00
1300.00	6789.11
1301.00	6260.93
1302.00	5070.38
1303.00	3664.50
1304.00	2435.72
1305.00	1595.47
1306.00	1177.29
1307.00	993.95
1308.00	881.60
1309.00	819.97
1310.00	732.59
1311.00	682.66
1312.00	635.07
1313.00	638.19
1314.00	636.63
1315.00	657.69
1316.00	607.76
1317.00	577.33
1318.00	513.36
1319.00	539.88
1320.00	533.64
1321.00	544.56
1322.00	533.64
1323.00	533.64
1324.00	543.78
1325.00	560.17
1326.00	582.01
1327.00	580.45
1328.00	558.61
1329.00	592.16
1330.00	926.07
1331.00	1863.07
1332.00	3470.23
1333.00	5458.91
1334.00	7034.09
1335.00	7464.75
1336.00	6730.60
1337.00	5249.04
1338.00	3708.97
1339.00	2399.05
1340.00	1523.69
1341.00	1046.22
1342.00	812.95
1343.00	711.52
1344.00	676.41
1345.00	656.13
1346.00	633.50
1347.00	607.76
1348.00	598.40
1349.00	610.88
1350.00	642.09
1351.00	677.98
1352.00	695.92
1353.00	706.06
1354.00	688.12
1355.00	713.08
1356.00	750.53
