SpectraSuite Data File
++++++++++++++++++++++++++++++++++++
Date: Thu Nov 16 13:55:20 EST 2017
User: cheriyan
Dark Spectrum Present: No
Reference Spectrum Present: No
Number of Sampled Component Spectra: 1
Spectrometers: USB2+H05261
Integration Time (usec): 100000 (USB2+H05261)
Spectra Averaged: 1 (USB2+H05261)
Boxcar Smoothing: 1 (USB2+H05261)
Correct for Electrical Dark: No (USB2+H05261)
Strobe/Lamp Enabled: No (USB2+H05261)
Correct for Detector Non-linearity: No (USB2+H05261)
Correct for Stray Light: No (USB2+H05261)
Number of Pixels in Processed Spectrum: 2048
>>>>>Begin Processed Spectral Data<<<<<
0.00	273.84
1.00	273.84
2.00	273.06
3.00	266.04
4.00	263.70
5.00	272.28
6.00	255.90
7.00	242.64
8.00	213.77
9.00	232.49
10.00	239.51
11.00	237.95
12.00	237.17
13.00	203.63
14.00	223.91
15.00	248.10
16.00	291.79
17.00	297.25
18.00	280.08
19.00	291.79
20.00	287.11
21.00	280.86
22.00	269.94
23.00	264.48
24.00	293.35
25.00	314.41
26.00	337.82
27.00	354.98
28.00	354.98
29.00	344.06
30.00	346.40
31.00	350.30
32.00	390.09
33.00	371.36
34.00	386.97
35.00	382.29
36.00	379.17
37.00	376.05
38.00	383.07
39.00	389.31
40.00	406.47
41.00	406.47
42.00	436.90
43.00	451.72
44.00	442.36
45.00	447.82
46.00	421.30
47.00	440.02
48.00	436.12
49.00	448.60
50.00	434.56
51.00	411.15
52.00	418.96
53.00	411.15
54.00	391.65
55.00	383.07
56.00	386.19
57.00	416.62
58.00	422.86
59.00	425.20
60.00	432.22
61.00	408.81
62.00	384.63
63.00	365.90
64.00	372.93
65.00	415.84
66.00	418.18
67.00	411.15
68.00	391.65
69.00	402.57
70.00	413.49
71.00	417.40
72.00	401.01
73.00	393.21
74.00	389.31
75.00	395.55
76.00	361.22
77.00	349.52
78.00	351.86
79.00	380.73
80.00	398.67
81.00	390.09
82.00	379.95
83.00	391.65
84.00	419.74
85.00	425.98
86.00	404.13
87.00	389.31
88.00	394.77
89.00	383.85
90.00	383.07
91.00	401.79
92.00	419.74
93.00	409.59
94.00	386.97
95.00	386.97
96.00	392.43
97.00	393.21
98.00	374.49
99.00	380.73
100.00	369.80
101.00	371.36
102.00	365.12
103.00	381.51
104.00	397.89
105.00	390.09
106.00	403.35
107.00	400.23
108.00	422.08
109.00	398.67
110.00	399.45
111.00	392.43
112.00	404.13
113.00	404.13
114.00	394.77
115.00	385.41
116.00	377.61
117.00	379.95
118.00	388.53
119.00	385.41
120.00	380.73
121.00	382.29
122.00	416.62
123.00	440.80
124.00	454.06
125.00	444.70
126.00	411.93
127.00	415.84
128.00	412.71
129.00	435.34
130.00	404.13
131.00	400.23
132.00	401.79
133.00	411.93
134.00	408.03
135.00	387.75
136.00	405.69
137.00	403.35
138.00	418.96
139.00	411.15
140.00	402.57
141.00	364.34
142.00	357.32
143.00	374.49
144.00	425.98
145.00	444.70
146.00	461.09
147.00	468.11
148.00	485.27
149.00	479.81
150.00	457.96
151.00	418.96
152.00	395.55
153.00	397.89
154.00	408.81
155.00	413.49
156.00	411.15
157.00	395.55
158.00	399.45
159.00	392.43
160.00	399.45
161.00	400.23
162.00	413.49
163.00	409.59
164.00	398.67
165.00	402.57
166.00	405.69
167.00	412.71
168.00	412.71
169.00	415.84
170.00	421.30
171.00	400.23
172.00	393.21
173.00	381.51
174.00	389.31
175.00	383.85
176.00	398.67
177.00	394.77
178.00	394.77
179.00	383.85
180.00	379.95
181.00	393.21
182.00	397.11
183.00	437.68
184.00	436.12
185.00	421.30
186.00	397.11
187.00	390.87
188.00	390.09
189.00	389.31
190.00	374.49
191.00	402.57
192.00	389.31
193.00	429.88
194.00	453.28
195.00	491.51
196.00	507.90
197.00	509.46
198.00	510.24
199.00	475.13
200.00	437.68
201.00	415.06
202.00	414.27
203.00	403.35
204.00	414.27
205.00	400.23
206.00	420.52
207.00	433.78
208.00	461.09
209.00	440.02
210.00	425.20
211.00	416.62
212.00	428.32
213.00	399.45
214.00	375.27
215.00	379.17
216.00	386.19
217.00	404.13
218.00	390.87
219.00	390.09
220.00	387.75
221.00	386.19
222.00	412.71
223.00	432.22
224.00	422.08
225.00	371.36
226.00	347.18
227.00	370.58
228.00	386.97
229.00	403.35
230.00	372.15
231.00	403.35
232.00	404.13
233.00	447.04
234.00	409.59
235.00	412.71
236.00	416.62
237.00	403.35
238.00	407.25
239.00	372.93
240.00	393.21
241.00	390.09
242.00	415.06
243.00	428.32
244.00	412.71
245.00	417.40
246.00	401.01
247.00	421.30
248.00	418.18
249.00	436.90
250.00	429.10
251.00	413.49
252.00	406.47
253.00	426.76
254.00	451.72
255.00	486.83
256.00	458.75
257.00	440.80
258.00	429.88
259.00	432.22
260.00	442.36
261.00	418.18
262.00	416.62
263.00	404.13
264.00	422.86
265.00	446.26
266.00	507.90
267.00	532.08
268.00	551.59
269.00	543.78
270.00	557.83
271.00	560.17
272.00	596.06
273.00	612.44
274.00	631.16
275.00	605.42
276.00	597.62
277.00	550.03
278.00	531.30
279.00	483.71
280.00	477.47
281.00	460.31
282.00	430.66
283.00	440.02
284.00	438.46
285.00	461.09
286.00	435.34
287.00	419.74
288.00	432.22
289.00	435.34
290.00	435.34
291.00	420.52
292.00	429.10
293.00	436.90
294.00	446.26
295.00	435.34
296.00	419.74
297.00	407.25
298.00	397.11
299.00	385.41
300.00	379.17
301.00	382.29
302.00	391.65
303.00	397.89
304.00	436.12
305.00	457.18
306.00	503.22
307.00	524.28
308.00	584.35
309.00	592.16
310.00	643.65
311.00	631.16
312.00	606.98
313.00	531.30
314.00	466.55
315.00	431.44
316.00	421.30
317.00	420.52
318.00	443.92
319.00	440.02
320.00	479.81
321.00	474.35
322.00	479.03
323.00	420.52
324.00	403.35
325.00	400.23
326.00	393.21
327.00	409.59
328.00	401.01
329.00	416.62
330.00	392.43
331.00	418.96
332.00	440.80
333.00	472.01
334.00	431.44
335.00	415.06
336.00	384.63
337.00	398.67
338.00	406.47
339.00	424.42
340.00	432.22
341.00	441.58
342.00	437.68
343.00	425.20
344.00	413.49
345.00	415.06
346.00	486.05
347.00	584.35
348.00	698.26
349.00	722.45
350.00	714.64
351.00	649.11
352.00	609.32
353.00	555.49
354.00	544.56
355.00	519.60
356.00	478.25
357.00	447.82
358.00	440.80
359.00	466.55
360.00	479.81
361.00	470.45
362.00	459.53
363.00	436.12
364.00	414.27
365.00	422.86
366.00	447.82
367.00	465.77
368.00	486.05
369.00	464.99
370.00	450.94
371.00	440.80
372.00	421.30
373.00	411.15
374.00	379.17
375.00	396.33
376.00	406.47
377.00	425.20
378.00	402.57
379.00	417.40
380.00	419.74
381.00	430.66
382.00	416.62
383.00	386.97
384.00	393.21
385.00	386.19
386.00	398.67
387.00	384.63
388.00	401.01
389.00	410.37
390.00	425.98
391.00	423.64
392.00	450.94
393.00	444.70
394.00	445.48
395.00	425.20
396.00	441.58
397.00	451.72
398.00	415.84
399.00	411.15
400.00	411.93
401.00	411.15
402.00	403.35
403.00	384.63
404.00	396.33
405.00	387.75
406.00	379.95
407.00	390.87
408.00	401.01
409.00	421.30
410.00	403.35
411.00	404.91
412.00	406.47
413.00	405.69
414.00	380.73
415.00	362.78
416.00	382.29
417.00	412.71
418.00	442.36
419.00	459.53
420.00	458.74
421.00	446.26
422.00	434.56
423.00	404.13
424.00	392.43
425.00	400.23
426.00	418.18
427.00	429.10
428.00	422.08
429.00	447.82
430.00	439.24
431.00	428.32
432.00	424.42
433.00	431.44
434.00	431.44
435.00	436.12
436.00	426.76
437.00	429.88
438.00	406.47
439.00	416.62
440.00	433.00
441.00	455.62
442.00	472.79
443.00	449.38
444.00	436.90
445.00	428.32
446.00	457.96
447.00	460.31
448.00	451.72
449.00	429.88
450.00	425.20
451.00	433.78
452.00	418.96
453.00	424.42
454.00	404.13
455.00	423.64
456.00	428.32
457.00	447.04
458.00	451.72
459.00	439.24
460.00	424.42
461.00	412.71
462.00	398.67
463.00	413.49
464.00	425.20
465.00	439.24
466.00	423.64
467.00	409.59
468.00	413.49
469.00	437.68
470.00	457.96
471.00	461.87
472.00	429.88
473.00	425.20
474.00	444.70
475.00	456.40
476.00	451.72
477.00	423.64
478.00	428.32
479.00	407.25
480.00	414.27
481.00	411.93
482.00	416.62
483.00	405.69
484.00	411.93
485.00	420.52
486.00	444.70
487.00	418.18
488.00	411.15
489.00	401.79
490.00	433.78
491.00	458.75
492.00	437.68
493.00	435.34
494.00	446.26
495.00	448.60
496.00	436.90
497.00	383.85
498.00	396.33
499.00	360.44
500.00	411.93
501.00	393.99
502.00	433.78
503.00	392.43
504.00	387.75
505.00	372.93
506.00	388.53
507.00	384.63
508.00	396.33
509.00	400.23
510.00	430.66
511.00	434.56
512.00	398.67
513.00	415.84
514.00	422.08
515.00	450.94
516.00	432.22
517.00	424.42
518.00	433.78
519.00	411.15
520.00	401.79
521.00	400.23
522.00	398.67
523.00	418.96
524.00	396.33
525.00	442.36
526.00	422.86
527.00	451.72
528.00	418.18
529.00	429.10
530.00	437.68
531.00	454.84
532.00	475.91
533.00	435.34
534.00	443.14
535.00	426.76
536.00	441.58
537.00	422.86
538.00	415.84
539.00	426.76
540.00	434.56
541.00	420.52
542.00	413.49
543.00	397.89
544.00	417.40
545.00	430.66
546.00	438.46
547.00	444.70
548.00	449.38
549.00	449.38
550.00	445.48
551.00	444.70
552.00	445.48
553.00	439.24
554.00	452.50
555.00	463.43
556.00	479.81
557.00	455.62
558.00	465.77
559.00	436.12
560.00	406.47
561.00	378.39
562.00	400.23
563.00	413.49
564.00	413.49
565.00	392.43
566.00	404.91
567.00	406.47
568.00	398.67
569.00	397.11
570.00	383.07
571.00	423.64
572.00	410.37
573.00	461.87
574.00	435.34
575.00	464.21
576.00	425.98
577.00	431.44
578.00	408.03
579.00	409.59
580.00	405.69
581.00	421.30
582.00	447.82
583.00	451.72
584.00	450.16
585.00	447.82
586.00	452.50
587.00	429.88
588.00	405.69
589.00	393.21
590.00	411.15
591.00	418.96
592.00	428.32
593.00	419.74
594.00	411.15
595.00	398.67
596.00	401.79
597.00	431.44
598.00	425.98
599.00	436.12
600.00	450.16
601.00	475.13
602.00	479.81
603.00	441.58
604.00	432.22
605.00	416.62
606.00	415.84
607.00	418.18
608.00	411.15
609.00	411.93
610.00	436.90
611.00	434.56
612.00	450.94
613.00	428.32
614.00	421.30
615.00	392.43
616.00	386.97
617.00	401.01
618.00	397.89
619.00	415.84
620.00	414.27
621.00	459.53
622.00	431.44
623.00	436.12
624.00	396.33
625.00	395.55
626.00	393.21
627.00	410.37
628.00	432.22
629.00	468.11
630.00	468.11
631.00	467.33
632.00	433.00
633.00	428.32
634.00	410.37
635.00	433.00
636.00	443.92
637.00	476.69
638.00	474.35
639.00	457.18
640.00	465.77
641.00	433.00
642.00	455.62
643.00	422.08
644.00	429.88
645.00	411.15
646.00	393.21
647.00	406.47
648.00	397.11
649.00	411.15
650.00	421.30
651.00	436.12
652.00	447.82
653.00	429.88
654.00	464.99
655.00	463.43
656.00	469.67
657.00	408.03
658.00	407.25
659.00	409.59
660.00	423.64
661.00	415.84
662.00	415.84
663.00	414.27
664.00	421.30
665.00	430.66
666.00	473.57
667.00	461.09
668.00	452.50
669.00	429.88
670.00	443.14
671.00	457.18
672.00	421.30
673.00	401.01
674.00	373.71
675.00	409.59
676.00	426.76
677.00	425.20
678.00	445.48
679.00	443.92
680.00	465.77
681.00	440.02
682.00	438.46
683.00	423.64
684.00	438.46
685.00	435.34
686.00	440.80
687.00	441.58
688.00	449.38
689.00	442.36
690.00	422.08
691.00	425.98
692.00	434.56
693.00	457.18
694.00	456.40
695.00	463.43
696.00	442.36
697.00	430.66
698.00	413.49
699.00	404.13
700.00	408.81
701.00	406.47
702.00	421.30
703.00	410.37
704.00	436.90
705.00	422.08
706.00	433.00
707.00	413.49
708.00	439.24
709.00	445.48
710.00	474.35
711.00	466.55
712.00	449.38
713.00	416.62
714.00	422.86
715.00	443.92
716.00	451.72
717.00	445.48
718.00	461.87
719.00	452.50
720.00	465.77
721.00	444.70
722.00	475.91
723.00	468.89
724.00	462.65
725.00	468.89
726.00	447.82
727.00	454.84
728.00	444.70
729.00	450.16
730.00	441.58
731.00	447.82
732.00	452.50
733.00	461.87
734.00	450.94
735.00	489.95
736.00	501.65
737.00	507.90
738.00	473.57
739.00	475.91
740.00	458.74
741.00	461.87
742.00	456.40
743.00	463.43
744.00	463.43
745.00	461.09
746.00	437.68
747.00	440.80
748.00	439.24
749.00	475.91
750.00	469.67
751.00	474.35
752.00	476.69
753.00	465.77
754.00	447.82
755.00	407.25
756.00	397.89
757.00	416.62
758.00	430.66
759.00	459.53
760.00	473.57
761.00	487.61
762.00	484.49
763.00	457.18
764.00	456.40
765.00	438.46
766.00	428.32
767.00	397.11
768.00	400.23
769.00	395.55
770.00	429.88
771.00	432.22
772.00	438.46
773.00	422.08
774.00	437.68
775.00	457.18
776.00	454.84
777.00	438.46
778.00	440.02
779.00	468.11
780.00	517.26
781.00	560.95
782.00	571.87
783.00	610.10
784.00	565.63
785.00	534.42
786.00	464.99
787.00	440.80
788.00	417.40
789.00	388.53
790.00	415.06
791.00	437.68
792.00	456.40
793.00	433.78
794.00	406.47
795.00	381.51
796.00	386.19
797.00	434.56
798.00	483.71
799.00	486.05
800.00	469.67
801.00	461.87
802.00	478.25
803.00	492.29
804.00	464.99
805.00	452.50
806.00	449.38
807.00	479.81
808.00	502.43
809.00	465.77
810.00	468.89
811.00	457.18
812.00	470.45
813.00	449.38
814.00	434.56
815.00	433.00
816.00	409.59
817.00	408.81
818.00	421.30
819.00	414.27
820.00	448.60
821.00	472.01
822.00	553.93
823.00	552.37
824.00	538.32
825.00	490.73
826.00	479.03
827.00	489.95
828.00	487.61
829.00	446.26
830.00	443.92
831.00	442.36
832.00	474.35
833.00	472.79
834.00	479.03
835.00	481.37
836.00	454.06
837.00	444.70
838.00	435.34
839.00	458.75
840.00	489.17
841.00	510.24
842.00	504.00
843.00	487.61
844.00	488.39
845.00	495.41
846.00	477.47
847.00	461.09
848.00	443.92
849.00	448.60
850.00	442.36
851.00	456.40
852.00	451.72
853.00	437.68
854.00	418.96
855.00	401.01
856.00	404.91
857.00	422.86
858.00	438.46
859.00	433.78
860.00	436.90
861.00	425.98
862.00	464.21
863.00	452.50
864.00	439.24
865.00	417.40
866.00	401.01
867.00	430.66
868.00	429.10
869.00	457.18
870.00	433.00
871.00	436.90
872.00	412.71
873.00	430.66
874.00	436.12
875.00	455.62
876.00	461.09
877.00	448.60
878.00	425.20
879.00	425.98
880.00	398.67
881.00	405.69
882.00	395.55
883.00	436.12
884.00	440.02
885.00	452.50
886.00	451.72
887.00	459.53
888.00	444.70
889.00	447.04
890.00	442.36
891.00	461.87
892.00	452.50
893.00	441.58
894.00	411.93
895.00	413.49
896.00	404.13
897.00	427.54
898.00	413.49
899.00	447.04
900.00	473.57
901.00	472.01
902.00	471.23
903.00	502.44
904.00	633.50
905.00	740.39
906.00	800.46
907.00	792.66
908.00	759.11
909.00	1004.87
910.00	1007.99
911.00	1059.48
912.00	858.20
913.00	896.43
914.00	845.71
915.00	742.73
916.00	626.48
917.00	564.85
918.00	496.19
919.00	461.87
920.00	448.60
921.00	436.90
922.00	424.42
923.00	407.25
924.00	436.12
925.00	443.14
926.00	476.69
927.00	437.68
928.00	450.94
929.00	416.62
930.00	442.36
931.00	436.90
932.00	452.50
933.00	455.62
934.00	442.36
935.00	433.00
936.00	446.26
937.00	466.55
938.00	469.67
939.00	454.84
940.00	458.75
941.00	473.57
942.00	502.43
943.00	630.38
944.00	1040.76
945.00	1911.44
946.00	2963.12
947.00	3701.95
948.00	3725.35
949.00	3203.41
950.00	2415.43
951.00	1688.31
952.00	1071.97
953.00	720.10
954.00	521.94
955.00	464.99
956.00	447.04
957.00	455.62
958.00	460.31
959.00	442.36
960.00	450.94
961.00	435.34
962.00	434.56
963.00	419.74
964.00	421.30
965.00	432.22
966.00	455.62
967.00	462.65
968.00	443.14
969.00	414.27
970.00	401.01
971.00	423.64
972.00	421.30
973.00	421.30
974.00	401.79
975.00	401.01
976.00	412.71
977.00	424.42
978.00	433.00
979.00	425.20
980.00	431.44
981.00	438.46
982.00	442.36
983.00	447.04
984.00	425.20
985.00	447.04
986.00	425.20
987.00	443.92
988.00	441.58
989.00	454.84
990.00	453.28
991.00	404.91
992.00	391.65
993.00	376.05
994.00	397.11
995.00	390.87
996.00	394.77
997.00	416.62
998.00	425.98
999.00	454.84
1000.00	450.16
1001.00	473.57
1002.00	443.14
1003.00	465.77
1004.00	467.33
1005.00	504.78
1006.00	481.37
1007.00	468.11
1008.00	424.42
1009.00	432.22
1010.00	450.94
1011.00	450.94
1012.00	458.75
1013.00	451.72
1014.00	448.60
1015.00	415.06
1016.00	397.89
1017.00	427.54
1018.00	457.96
1019.00	466.55
1020.00	465.77
1021.00	452.50
1022.00	447.04
1023.00	429.88
1024.00	442.36
1025.00	461.87
1026.00	487.61
1027.00	480.59
1028.00	446.26
1029.00	422.86
1030.00	411.93
1031.00	439.24
1032.00	443.14
1033.00	440.80
1034.00	427.54
1035.00	425.98
1036.00	455.62
1037.00	468.11
1038.00	485.27
1039.00	474.35
1040.00	481.37
1041.00	485.27
1042.00	503.22
1043.00	518.04
1044.00	556.27
1045.00	610.88
1046.00	596.84
1047.00	567.97
1048.00	488.39
1049.00	463.43
1050.00	432.22
1051.00	447.82
1052.00	449.38
1053.00	462.65
1054.00	454.06
1055.00	462.65
1056.00	429.10
1057.00	434.56
1058.00	459.53
1059.00	471.23
1060.00	442.36
1061.00	409.59
1062.00	418.96
1063.00	448.60
1064.00	468.89
1065.00	481.37
1066.00	489.17
1067.00	468.89
1068.00	478.25
1069.00	486.05
1070.00	493.07
1071.00	473.57
1072.00	460.31
1073.00	450.16
1074.00	465.77
1075.00	454.84
1076.00	461.87
1077.00	450.16
1078.00	445.48
1079.00	475.13
1080.00	496.97
1081.00	479.81
1082.00	458.74
1083.00	431.44
1084.00	457.18
1085.00	438.46
1086.00	450.16
1087.00	436.90
1088.00	426.76
1089.00	397.89
1090.00	413.49
1091.00	432.22
1092.00	464.99
1093.00	452.50
1094.00	449.38
1095.00	451.72
1096.00	444.70
1097.00	459.53
1098.00	472.01
1099.00	526.62
1100.00	563.29
1101.00	579.67
1102.00	572.65
1103.00	557.83
1104.00	531.30
1105.00	514.14
1106.00	494.63
1107.00	493.85
1108.00	445.48
1109.00	449.38
1110.00	403.35
1111.00	413.49
1112.00	407.25
1113.00	469.67
1114.00	507.12
1115.00	514.92
1116.00	482.93
1117.00	447.04
1118.00	448.60
1119.00	461.09
1120.00	473.57
1121.00	486.83
1122.00	518.82
1123.00	533.64
1124.00	489.95
1125.00	443.14
1126.00	447.04
1127.00	452.50
1128.00	468.89
1129.00	416.62
1130.00	432.22
1131.00	429.10
1132.00	469.67
1133.00	455.62
1134.00	447.04
1135.00	454.84
1136.00	483.71
1137.00	517.26
1138.00	530.52
1139.00	556.27
1140.00	553.93
1141.00	557.83
1142.00	515.70
1143.00	493.85
1144.00	464.21
1145.00	447.04
1146.00	468.11
1147.00	493.07
1148.00	514.92
1149.00	490.73
1150.00	498.53
1151.00	511.02
1152.00	504.78
1153.00	495.41
1154.00	504.78
1155.00	564.07
1156.00	638.97
1157.00	714.64
1158.00	756.77
1159.00	745.85
1160.00	696.70
1161.00	662.37
1162.00	604.64
1163.00	663.15
1164.00	781.74
1165.00	1085.23
1166.00	1385.60
1167.00	1666.46
1168.00	1696.89
1169.00	1553.34
1170.00	1282.61
1171.00	1054.80
1172.00	857.42
1173.00	714.64
1174.00	624.14
1175.00	598.40
1176.00	599.96
1177.00	604.64
1178.00	602.30
1179.00	582.79
1180.00	589.82
1181.00	600.74
1182.00	625.70
1183.00	637.41
1184.00	632.72
1185.00	645.21
1186.00	667.83
1187.00	698.26
1188.00	702.16
1189.00	738.83
1190.00	784.86
1191.00	844.15
1192.00	860.54
1193.00	867.56
1194.00	874.58
1195.00	854.30
1196.00	845.71
1197.00	832.45
1198.00	865.22
1199.00	988.49
1200.00	1189.77
1201.00	1398.86
1202.00	1499.50
1203.00	1524.47
1204.00	1419.92
1205.00	1302.12
1206.00	1146.86
1207.00	1087.57
1208.00	1081.33
1209.00	1141.40
1210.00	1207.72
1211.00	1256.87
1212.00	1355.95
1213.00	1480.00
1214.00	1705.47
1215.00	1985.55
1216.00	2518.42
1217.00	5779.56
1218.00	21063.26
1219.00	41833.17
1220.00	59762.46
1221.00	65535.00
1222.00	65535.00
1223.00	65535.00
1224.00	65535.00
1225.00	65283.00
1226.00	56264.92
1227.00	40602.05
1228.00	22046.29
1229.00	10791.43
1230.00	5533.03
1231.00	3204.97
1232.00	2248.47
1233.00	1888.03
1234.00	1723.41
1235.00	1647.74
1236.00	2108.82
1237.00	3717.55
1238.00	7079.34
1239.00	11605.16
1240.00	15314.13
1241.00	16349.42
1242.00	14494.94
1243.00	11183.86
1244.00	7657.45
1245.00	4816.04
1246.00	2819.57
1247.00	1767.88
1248.00	1218.64
1249.00	941.68
1250.00	907.35
1251.00	970.54
1252.00	1107.85
1253.00	1220.98
1254.00	1271.69
1255.00	1242.04
1256.00	1196.01
1257.00	1141.40
1258.00	1088.35
1259.00	966.64
1260.00	915.15
1261.00	880.04
1262.00	887.06
1263.00	855.86
1264.00	829.33
1265.00	809.05
1266.00	786.42
1267.00	774.72
1268.00	763.79
1269.00	756.77
1270.00	755.99
1271.00	791.10
1272.00	823.87
1273.00	858.98
1274.00	899.55
1275.00	1240.48
1276.00	3006.81
1277.00	7236.16
1278.00	14727.43
1279.00	22967.68
1280.00	28597.45
1281.00	28660.64
1282.00	24488.24
1283.00	17976.09
1284.00	11779.92
1285.00	6750.89
1286.00	3697.27
1287.00	2133.79
1288.00	1344.25
1289.00	1035.30
1290.00	916.71
1291.00	908.13
1292.00	917.49
1293.00	913.59
1294.00	912.81
1295.00	1057.92
1296.00	1651.64
1297.00	2888.22
1298.00	4670.93
1299.00	6202.42
1300.00	6814.86
1301.00	6274.20
1302.00	5071.94
1303.00	3670.74
1304.00	2447.42
1305.00	1567.38
1306.00	1107.07
1307.00	904.23
1308.00	841.03
1309.00	835.57
1310.00	780.18
1311.00	717.76
1312.00	641.31
1313.00	612.44
1314.00	612.44
1315.00	567.97
1316.00	568.75
1317.00	528.18
1318.00	543.00
1319.00	538.32
1320.00	577.33
1321.00	588.25
1322.00	594.50
1323.00	564.85
1324.00	563.29
1325.00	571.09
1326.00	571.09
1327.00	576.55
1328.00	586.69
1329.00	627.26
1330.00	966.64
1331.00	1849.02
1332.00	3544.35
1333.00	5479.97
1334.00	7048.91
1335.00	7365.67
1336.00	6680.67
1337.00	5256.06
1338.00	3792.45
1339.00	2484.09
1340.00	1549.43
1341.00	1029.84
1342.00	783.30
1343.00	702.94
1344.00	649.89
1345.00	633.50
1346.00	608.54
1347.00	621.02
1348.00	610.10
1349.00	635.07
1350.00	667.83
1351.00	689.68
1352.00	688.90
1353.00	681.10
1354.00	683.44
1355.00	746.63
1356.00	793.44
