SpectraSuite Data File
++++++++++++++++++++++++++++++++++++
Date: Thu Nov 16 14:27:21 EST 2017
User: cheriyan
Dark Spectrum Present: No
Reference Spectrum Present: No
Number of Sampled Component Spectra: 1
Spectrometers: USB2+H05261
Integration Time (usec): 100000 (USB2+H05261)
Spectra Averaged: 1 (USB2+H05261)
Boxcar Smoothing: 1 (USB2+H05261)
Correct for Electrical Dark: No (USB2+H05261)
Strobe/Lamp Enabled: No (USB2+H05261)
Correct for Detector Non-linearity: No (USB2+H05261)
Correct for Stray Light: No (USB2+H05261)
Number of Pixels in Processed Spectrum: 2048
>>>>>Begin Processed Spectral Data<<<<<
0.00	276.18
1.00	276.18
2.00	269.16
3.00	255.12
4.00	246.54
5.00	216.11
6.00	221.57
7.00	205.19
8.00	217.67
9.00	218.45
10.00	217.67
11.00	205.19
12.00	168.52
13.00	170.08
14.00	192.70
15.00	241.86
16.00	244.98
17.00	248.10
18.00	232.49
19.00	248.10
20.00	251.22
21.00	273.06
22.00	298.03
23.00	314.41
24.00	314.41
25.00	308.17
26.00	333.14
27.00	364.34
28.00	379.95
29.00	390.87
30.00	383.07
31.00	382.29
32.00	368.24
33.00	356.54
34.00	353.42
35.00	366.68
36.00	360.44
37.00	365.90
38.00	352.64
39.00	378.39
40.00	387.75
41.00	385.41
42.00	391.65
43.00	415.06
44.00	437.68
45.00	440.80
46.00	430.66
47.00	423.64
48.00	405.69
49.00	391.65
50.00	401.01
51.00	416.62
52.00	431.44
53.00	432.22
54.00	409.59
55.00	378.39
56.00	376.05
57.00	405.69
58.00	443.92
59.00	447.04
60.00	433.00
61.00	430.66
62.00	397.89
63.00	393.21
64.00	375.27
65.00	394.77
66.00	393.21
67.00	386.19
68.00	371.36
69.00	354.20
70.00	344.06
71.00	360.44
72.00	366.68
73.00	386.97
74.00	390.87
75.00	408.03
76.00	396.33
77.00	346.40
78.00	328.46
79.00	333.14
80.00	367.46
81.00	369.80
82.00	359.66
83.00	386.97
84.00	397.11
85.00	411.15
86.00	373.71
87.00	395.55
88.00	389.31
89.00	403.35
90.00	360.44
91.00	376.83
92.00	382.29
93.00	425.98
94.00	408.81
95.00	401.79
96.00	359.66
97.00	362.00
98.00	358.10
99.00	372.93
100.00	363.56
101.00	361.22
102.00	362.00
103.00	354.98
104.00	377.61
105.00	399.45
106.00	404.13
107.00	395.55
108.00	383.07
109.00	393.21
110.00	400.23
111.00	352.64
112.00	337.04
113.00	305.05
114.00	331.58
115.00	340.16
116.00	363.56
117.00	376.05
118.00	381.51
119.00	379.95
120.00	376.83
121.00	355.76
122.00	358.88
123.00	356.54
124.00	391.65
125.00	393.99
126.00	393.21
127.00	367.46
128.00	354.98
129.00	339.38
130.00	347.18
131.00	358.88
132.00	390.87
133.00	402.57
134.00	376.83
135.00	391.65
136.00	394.77
137.00	401.79
138.00	369.02
139.00	376.83
140.00	402.57
141.00	422.08
142.00	420.52
143.00	408.03
144.00	394.77
145.00	383.85
146.00	355.76
147.00	351.08
148.00	346.40
149.00	385.41
150.00	409.59
151.00	404.13
152.00	396.33
153.00	367.46
154.00	383.07
155.00	382.29
156.00	396.33
157.00	386.19
158.00	397.11
159.00	393.21
160.00	401.01
161.00	383.85
162.00	394.77
163.00	379.17
164.00	403.35
165.00	404.91
166.00	403.35
167.00	407.25
168.00	394.77
169.00	404.91
170.00	384.63
171.00	391.65
172.00	390.09
173.00	389.31
174.00	391.65
175.00	390.09
176.00	386.97
177.00	369.02
178.00	365.12
179.00	374.49
180.00	379.17
181.00	401.01
182.00	404.13
183.00	409.59
184.00	404.13
185.00	386.19
186.00	372.15
187.00	369.02
188.00	352.64
189.00	346.40
190.00	335.48
191.00	356.54
192.00	364.34
193.00	365.12
194.00	378.39
195.00	401.01
196.00	415.06
197.00	404.13
198.00	365.90
199.00	348.74
200.00	351.08
201.00	393.21
202.00	389.31
203.00	371.36
204.00	379.95
205.00	423.64
206.00	417.40
207.00	407.25
208.00	388.53
209.00	413.49
210.00	406.47
211.00	408.81
212.00	390.87
213.00	386.97
214.00	404.91
215.00	410.37
216.00	408.81
217.00	363.56
218.00	365.90
219.00	370.58
220.00	393.99
221.00	401.01
222.00	388.53
223.00	373.71
224.00	379.95
225.00	404.13
226.00	399.45
227.00	372.15
228.00	362.00
229.00	390.09
230.00	416.62
231.00	419.74
232.00	407.25
233.00	404.13
234.00	402.57
235.00	396.33
236.00	391.65
237.00	401.79
238.00	436.90
239.00	432.22
240.00	404.91
241.00	375.27
242.00	400.23
243.00	399.45
244.00	387.75
245.00	367.46
246.00	381.51
247.00	389.31
248.00	387.75
249.00	368.24
250.00	358.10
251.00	360.44
252.00	365.90
253.00	359.66
254.00	366.68
255.00	376.83
256.00	394.77
257.00	370.58
258.00	365.90
259.00	341.72
260.00	350.30
261.00	364.34
262.00	398.67
263.00	415.84
264.00	418.96
265.00	384.63
266.00	379.17
267.00	405.69
268.00	425.20
269.00	429.10
270.00	380.73
271.00	362.78
272.00	387.75
273.00	402.57
274.00	428.32
275.00	409.59
276.00	413.49
277.00	403.35
278.00	383.85
279.00	396.33
280.00	411.15
281.00	423.64
282.00	427.54
283.00	435.34
284.00	426.76
285.00	403.35
286.00	356.54
287.00	355.76
288.00	365.12
289.00	391.65
290.00	390.09
291.00	381.51
292.00	390.09
293.00	395.55
294.00	402.57
295.00	410.37
296.00	407.25
297.00	393.21
298.00	365.12
299.00	362.78
300.00	381.51
301.00	390.87
302.00	372.15
303.00	372.93
304.00	386.97
305.00	411.15
306.00	384.63
307.00	386.97
308.00	399.45
309.00	410.37
310.00	417.40
311.00	422.08
312.00	442.36
313.00	421.30
314.00	420.52
315.00	395.55
316.00	404.13
317.00	383.07
318.00	388.53
319.00	370.58
320.00	375.27
321.00	370.58
322.00	367.46
323.00	362.78
324.00	354.20
325.00	379.17
326.00	381.51
327.00	415.06
328.00	396.33
329.00	393.99
330.00	362.78
331.00	375.27
332.00	347.18
333.00	359.66
334.00	362.78
335.00	393.99
336.00	403.35
337.00	418.96
338.00	421.30
339.00	399.45
340.00	383.85
341.00	390.87
342.00	383.07
343.00	355.76
344.00	343.28
345.00	358.88
346.00	386.19
347.00	390.09
348.00	390.87
349.00	393.99
350.00	397.11
351.00	406.47
352.00	400.23
353.00	409.59
354.00	401.01
355.00	410.37
356.00	395.55
357.00	417.40
358.00	406.47
359.00	427.54
360.00	437.68
361.00	444.70
362.00	420.52
363.00	383.07
364.00	393.99
365.00	386.19
366.00	377.61
367.00	352.64
368.00	404.13
369.00	418.18
370.00	425.98
371.00	376.05
372.00	381.51
373.00	385.41
374.00	405.69
375.00	405.69
376.00	401.79
377.00	388.53
378.00	395.55
379.00	404.13
380.00	405.69
381.00	384.63
382.00	385.41
383.00	372.15
384.00	365.90
385.00	365.12
386.00	390.09
387.00	401.01
388.00	397.89
389.00	375.27
390.00	395.55
391.00	393.99
392.00	411.93
393.00	426.76
394.00	437.68
395.00	442.36
396.00	415.84
397.00	391.65
398.00	392.43
399.00	405.69
400.00	405.69
401.00	393.99
402.00	380.73
403.00	376.83
404.00	382.29
405.00	383.07
406.00	399.45
407.00	413.49
408.00	415.84
409.00	409.59
410.00	397.89
411.00	372.15
412.00	367.46
413.00	357.32
414.00	351.08
415.00	372.93
416.00	381.51
417.00	424.42
418.00	393.99
419.00	382.29
420.00	347.18
421.00	347.18
422.00	355.76
423.00	381.51
424.00	406.47
425.00	415.84
426.00	421.30
427.00	418.18
428.00	415.84
429.00	401.79
430.00	398.67
431.00	420.52
432.00	417.40
433.00	421.30
434.00	390.09
435.00	394.77
436.00	357.32
437.00	371.36
438.00	372.15
439.00	411.93
440.00	412.71
441.00	427.54
442.00	414.27
443.00	411.15
444.00	407.25
445.00	415.84
446.00	428.32
447.00	426.76
448.00	433.00
449.00	397.11
450.00	390.09
451.00	372.93
452.00	376.83
453.00	372.15
454.00	381.51
455.00	380.73
456.00	412.71
457.00	404.13
458.00	397.89
459.00	365.12
460.00	335.48
461.00	343.28
462.00	334.70
463.00	361.22
464.00	358.10
465.00	372.93
466.00	409.59
467.00	425.98
468.00	435.34
469.00	424.42
470.00	410.37
471.00	383.07
472.00	372.15
473.00	407.25
474.00	460.31
475.00	474.35
476.00	423.64
477.00	399.45
478.00	390.09
479.00	415.06
480.00	408.81
481.00	404.91
482.00	404.91
483.00	400.23
484.00	386.19
485.00	388.53
486.00	373.71
487.00	365.12
488.00	404.13
489.00	417.40
490.00	433.78
491.00	393.21
492.00	411.93
493.00	415.06
494.00	407.25
495.00	394.77
496.00	387.75
497.00	393.21
498.00	390.09
499.00	374.49
500.00	388.53
501.00	379.17
502.00	425.20
503.00	425.98
504.00	445.48
505.00	418.96
506.00	433.00
507.00	430.66
508.00	431.44
509.00	424.42
510.00	425.20
511.00	448.60
512.00	431.44
513.00	410.37
514.00	389.31
515.00	379.95
516.00	376.83
517.00	383.07
518.00	399.45
519.00	411.15
520.00	391.65
521.00	379.95
522.00	386.97
523.00	375.27
524.00	391.65
525.00	386.19
526.00	411.15
527.00	408.03
528.00	408.03
529.00	404.91
530.00	398.67
531.00	403.35
532.00	404.13
533.00	404.91
534.00	410.37
535.00	419.74
536.00	447.82
537.00	454.06
538.00	449.38
539.00	425.20
540.00	428.32
541.00	416.62
542.00	433.78
543.00	422.08
544.00	425.98
545.00	404.13
546.00	404.91
547.00	408.03
548.00	406.47
549.00	369.80
550.00	389.31
551.00	402.57
552.00	440.80
553.00	410.37
554.00	392.43
555.00	387.75
556.00	376.83
557.00	374.49
558.00	365.90
559.00	393.21
560.00	391.65
561.00	401.01
562.00	394.77
563.00	390.09
564.00	345.62
565.00	352.64
566.00	358.10
567.00	401.01
568.00	391.65
569.00	408.03
570.00	418.96
571.00	431.44
572.00	446.26
573.00	447.82
574.00	428.32
575.00	414.27
576.00	396.33
577.00	406.47
578.00	398.67
579.00	382.29
580.00	404.13
581.00	422.86
582.00	436.12
583.00	420.52
584.00	389.31
585.00	402.57
586.00	383.85
587.00	392.43
588.00	402.57
589.00	439.24
590.00	442.36
591.00	438.46
592.00	412.71
593.00	410.37
594.00	392.43
595.00	386.97
596.00	362.00
597.00	351.86
598.00	337.04
599.00	362.00
600.00	390.09
601.00	411.15
602.00	386.19
603.00	364.34
604.00	355.76
605.00	401.79
606.00	411.93
607.00	417.40
608.00	400.23
609.00	380.73
610.00	374.49
611.00	385.41
612.00	407.25
613.00	404.13
614.00	377.61
615.00	365.90
616.00	386.19
617.00	414.27
618.00	396.33
619.00	372.93
620.00	354.20
621.00	374.49
622.00	390.09
623.00	411.15
624.00	439.24
625.00	477.47
626.00	467.33
627.00	408.81
628.00	377.61
629.00	397.11
630.00	447.82
631.00	444.70
632.00	431.44
633.00	415.06
634.00	428.32
635.00	462.65
636.00	536.76
637.00	573.43
638.00	581.23
639.00	545.34
640.00	506.34
641.00	474.35
642.00	439.24
643.00	430.66
644.00	406.47
645.00	408.03
646.00	397.89
647.00	406.47
648.00	412.71
649.00	429.88
650.00	422.86
651.00	408.81
652.00	386.97
653.00	401.01
654.00	447.04
655.00	447.04
656.00	443.92
657.00	389.31
658.00	375.27
659.00	347.96
660.00	350.30
661.00	354.20
662.00	392.43
663.00	393.21
664.00	397.89
665.00	383.85
666.00	374.49
667.00	405.69
668.00	400.23
669.00	406.47
670.00	394.77
671.00	389.31
672.00	380.73
673.00	358.88
674.00	340.94
675.00	352.64
676.00	362.78
677.00	399.45
678.00	408.03
679.00	439.24
680.00	433.00
681.00	436.12
682.00	404.13
683.00	396.33
684.00	381.51
685.00	386.19
686.00	381.51
687.00	364.34
688.00	354.20
689.00	353.42
690.00	383.07
691.00	396.33
692.00	386.19
693.00	365.90
694.00	359.66
695.00	375.27
696.00	398.67
697.00	441.58
698.00	457.96
699.00	462.65
700.00	428.32
701.00	405.69
702.00	408.03
703.00	410.37
704.00	401.01
705.00	376.83
706.00	355.76
707.00	373.71
708.00	398.67
709.00	390.87
710.00	403.35
711.00	380.73
712.00	391.65
713.00	360.44
714.00	366.68
715.00	402.57
716.00	447.04
717.00	480.59
718.00	489.95
719.00	452.50
720.00	406.47
721.00	369.02
722.00	377.61
723.00	430.66
724.00	432.22
725.00	450.94
726.00	402.57
727.00	408.03
728.00	402.57
729.00	429.10
730.00	436.12
731.00	423.64
732.00	407.25
733.00	397.11
734.00	402.57
735.00	422.08
736.00	417.40
737.00	425.98
738.00	425.98
739.00	441.58
740.00	425.98
741.00	404.91
742.00	429.10
743.00	443.14
744.00	451.72
745.00	425.98
746.00	396.33
747.00	382.29
748.00	376.83
749.00	394.77
750.00	405.69
751.00	413.49
752.00	426.76
753.00	423.64
754.00	390.87
755.00	369.80
756.00	376.05
757.00	401.79
758.00	408.03
759.00	390.87
760.00	376.05
761.00	354.20
762.00	363.56
763.00	386.19
764.00	415.06
765.00	412.71
766.00	392.43
767.00	401.79
768.00	416.62
769.00	411.93
770.00	382.29
771.00	383.85
772.00	372.93
773.00	388.53
774.00	362.78
775.00	397.89
776.00	391.65
777.00	411.93
778.00	389.31
779.00	408.81
780.00	425.20
781.00	427.54
782.00	415.84
783.00	447.82
784.00	472.01
785.00	443.14
786.00	379.95
787.00	355.76
788.00	366.68
789.00	368.24
790.00	388.53
791.00	407.25
792.00	409.59
793.00	404.13
794.00	404.91
795.00	392.43
796.00	390.09
797.00	369.02
798.00	397.11
799.00	386.97
800.00	384.63
801.00	366.68
802.00	365.12
803.00	395.55
804.00	401.79
805.00	404.91
806.00	398.67
807.00	422.86
808.00	440.02
809.00	424.42
810.00	413.49
811.00	404.91
812.00	392.43
813.00	371.36
814.00	351.08
815.00	378.39
816.00	369.80
817.00	385.41
818.00	371.36
819.00	395.55
820.00	404.91
821.00	418.96
822.00	418.96
823.00	399.45
824.00	404.13
825.00	435.34
826.00	459.53
827.00	450.94
828.00	406.47
829.00	423.64
830.00	410.37
831.00	397.89
832.00	368.24
833.00	358.88
834.00	357.32
835.00	352.64
836.00	380.73
837.00	411.15
838.00	412.71
839.00	385.41
840.00	376.05
841.00	385.41
842.00	409.59
843.00	426.76
844.00	431.44
845.00	428.32
846.00	420.52
847.00	383.07
848.00	386.19
849.00	385.41
850.00	397.11
851.00	405.69
852.00	418.18
853.00	418.96
854.00	388.53
855.00	371.36
856.00	368.24
857.00	369.80
858.00	390.09
859.00	386.19
860.00	419.74
861.00	404.13
862.00	416.62
863.00	394.77
864.00	395.55
865.00	408.81
866.00	423.64
867.00	412.71
868.00	424.42
869.00	425.20
870.00	422.08
871.00	397.89
872.00	383.85
873.00	396.33
874.00	426.76
875.00	408.03
876.00	421.30
877.00	393.99
878.00	432.22
879.00	405.69
880.00	384.63
881.00	378.39
882.00	383.85
883.00	400.23
884.00	372.93
885.00	376.83
886.00	397.89
887.00	432.22
888.00	414.27
889.00	405.69
890.00	385.41
891.00	398.67
892.00	404.13
893.00	422.08
894.00	425.20
895.00	425.20
896.00	421.30
897.00	416.62
898.00	403.35
899.00	397.11
900.00	386.19
901.00	378.39
902.00	385.41
903.00	412.71
904.00	443.14
905.00	438.46
906.00	415.06
907.00	403.35
908.00	387.75
909.00	734.15
910.00	748.97
911.00	759.89
912.00	409.59
913.00	386.19
914.00	386.19
915.00	407.25
916.00	409.59
917.00	401.01
918.00	400.23
919.00	411.93
920.00	409.59
921.00	392.43
922.00	390.09
923.00	397.11
924.00	386.97
925.00	408.81
926.00	410.37
927.00	436.90
928.00	406.47
929.00	415.06
930.00	437.68
931.00	445.48
932.00	454.06
933.00	423.64
934.00	418.96
935.00	390.09
936.00	396.33
937.00	393.21
938.00	390.09
939.00	376.05
940.00	386.97
941.00	402.57
942.00	425.98
943.00	440.02
944.00	424.42
945.00	417.40
946.00	394.77
947.00	418.18
948.00	417.40
949.00	407.25
950.00	403.35
951.00	415.84
952.00	426.76
953.00	436.12
954.00	438.46
955.00	447.82
956.00	443.92
957.00	442.36
958.00	447.82
959.00	454.84
960.00	458.74
961.00	457.18
962.00	461.87
963.00	452.50
964.00	448.60
965.00	436.12
966.00	397.89
967.00	360.44
968.00	350.30
969.00	358.10
970.00	378.39
971.00	377.61
972.00	396.33
973.00	392.43
974.00	380.73
975.00	383.07
976.00	386.97
977.00	415.06
978.00	398.67
979.00	393.21
980.00	370.58
981.00	392.43
982.00	397.89
983.00	388.53
984.00	366.68
985.00	370.58
986.00	395.55
987.00	430.66
988.00	443.14
989.00	439.24
990.00	404.13
991.00	397.11
992.00	397.11
993.00	394.77
994.00	388.53
995.00	369.02
996.00	375.27
997.00	366.68
998.00	404.13
999.00	440.80
1000.00	454.84
1001.00	425.98
1002.00	406.47
1003.00	401.79
1004.00	421.30
1005.00	428.32
1006.00	416.62
1007.00	413.49
1008.00	372.93
1009.00	401.01
1010.00	388.53
1011.00	411.15
1012.00	427.54
1013.00	424.42
1014.00	431.44
1015.00	372.15
1016.00	372.93
1017.00	369.02
1018.00	408.81
1019.00	438.46
1020.00	439.24
1021.00	423.64
1022.00	388.53
1023.00	404.13
1024.00	415.84
1025.00	429.10
1026.00	419.74
1027.00	407.25
1028.00	425.20
1029.00	404.13
1030.00	398.67
1031.00	391.65
1032.00	416.62
1033.00	460.31
1034.00	450.94
1035.00	426.76
1036.00	387.75
1037.00	389.31
1038.00	392.43
1039.00	393.99
1040.00	389.31
1041.00	395.55
1042.00	404.91
1043.00	377.61
1044.00	390.09
1045.00	419.74
1046.00	438.46
1047.00	419.74
1048.00	374.49
1049.00	380.73
1050.00	365.12
1051.00	376.83
1052.00	369.02
1053.00	387.75
1054.00	372.15
1055.00	359.66
1056.00	367.46
1057.00	376.83
1058.00	393.21
1059.00	402.57
1060.00	404.13
1061.00	410.37
1062.00	386.97
1063.00	379.17
1064.00	375.27
1065.00	390.87
1066.00	392.43
1067.00	393.21
1068.00	404.13
1069.00	415.06
1070.00	401.79
1071.00	368.24
1072.00	354.20
1073.00	363.56
1074.00	404.13
1075.00	413.49
1076.00	401.01
1077.00	369.80
1078.00	375.27
1079.00	413.49
1080.00	417.40
1081.00	396.33
1082.00	355.76
1083.00	353.42
1084.00	343.28
1085.00	362.00
1086.00	362.78
1087.00	387.75
1088.00	397.89
1089.00	432.22
1090.00	438.46
1091.00	427.54
1092.00	375.27
1093.00	351.86
1094.00	401.01
1095.00	439.24
1096.00	464.21
1097.00	415.84
1098.00	411.15
1099.00	411.15
1100.00	405.69
1101.00	405.69
1102.00	420.52
1103.00	432.22
1104.00	411.93
1105.00	401.01
1106.00	393.21
1107.00	415.06
1108.00	381.51
1109.00	372.15
1110.00	383.85
1111.00	417.40
1112.00	417.40
1113.00	391.65
1114.00	378.39
1115.00	412.71
1116.00	425.20
1117.00	453.28
1118.00	443.92
1119.00	448.60
1120.00	418.18
1121.00	394.77
1122.00	412.71
1123.00	422.86
1124.00	450.16
1125.00	415.84
1126.00	408.03
1127.00	388.53
1128.00	406.47
1129.00	396.33
1130.00	420.52
1131.00	409.59
1132.00	439.24
1133.00	415.84
1134.00	407.25
1135.00	379.17
1136.00	410.37
1137.00	440.02
1138.00	446.26
1139.00	422.86
1140.00	393.21
1141.00	396.33
1142.00	363.56
1143.00	353.42
1144.00	324.55
1145.00	365.90
1146.00	397.89
1147.00	443.14
1148.00	408.03
1149.00	409.59
1150.00	406.47
1151.00	430.66
1152.00	425.20
1153.00	413.49
1154.00	418.96
1155.00	400.23
1156.00	402.57
1157.00	401.79
1158.00	400.23
1159.00	404.13
1160.00	389.31
1161.00	392.43
1162.00	390.09
1163.00	415.84
1164.00	431.44
1165.00	449.38
1166.00	418.18
1167.00	415.06
1168.00	386.97
1169.00	403.35
1170.00	408.03
1171.00	430.66
1172.00	431.44
1173.00	432.22
1174.00	422.08
1175.00	440.02
1176.00	417.40
1177.00	429.10
1178.00	418.96
1179.00	412.71
1180.00	404.13
1181.00	381.51
1182.00	401.01
1183.00	386.97
1184.00	407.25
1185.00	428.32
1186.00	426.76
1187.00	422.08
1188.00	400.23
1189.00	408.03
1190.00	405.69
1191.00	418.18
1192.00	433.00
1193.00	454.84
1194.00	424.42
1195.00	422.86
1196.00	385.41
1197.00	408.81
1198.00	407.25
1199.00	404.13
1200.00	384.63
1201.00	387.75
1202.00	407.25
1203.00	418.96
1204.00	408.03
1205.00	411.93
1206.00	396.33
1207.00	380.73
1208.00	408.81
1209.00	428.32
1210.00	450.16
1211.00	420.52
1212.00	429.10
1213.00	418.18
1214.00	436.12
1215.00	421.30
1216.00	404.13
1217.00	386.97
1218.00	386.97
1219.00	390.87
1220.00	379.95
1221.00	384.63
1222.00	399.45
1223.00	393.21
1224.00	411.15
1225.00	398.67
1226.00	407.25
1227.00	379.95
1228.00	399.45
1229.00	393.99
1230.00	400.23
1231.00	400.23
1232.00	404.13
1233.00	422.86
1234.00	412.71
1235.00	411.15
1236.00	400.23
1237.00	375.27
1238.00	377.61
1239.00	384.63
1240.00	414.27
1241.00	434.56
1242.00	450.94
1243.00	445.48
1244.00	431.44
1245.00	422.08
1246.00	405.69
1247.00	391.65
1248.00	382.29
1249.00	410.37
1250.00	434.56
1251.00	401.01
1252.00	422.86
1253.00	413.49
1254.00	431.44
1255.00	411.93
1256.00	397.11
1257.00	407.25
1258.00	403.35
1259.00	411.15
1260.00	406.47
1261.00	386.97
1262.00	407.25
1263.00	409.59
1264.00	429.10
1265.00	408.81
1266.00	419.74
1267.00	425.20
1268.00	443.92
1269.00	433.78
1270.00	423.64
1271.00	401.79
1272.00	388.53
1273.00	369.02
1274.00	373.71
1275.00	377.61
1276.00	393.99
1277.00	375.27
1278.00	392.43
1279.00	401.79
1280.00	428.32
1281.00	427.54
1282.00	428.32
1283.00	409.59
1284.00	407.25
1285.00	393.21
1286.00	401.01
1287.00	402.57
1288.00	416.62
1289.00	429.88
1290.00	416.62
1291.00	406.47
1292.00	418.96
1293.00	406.47
1294.00	404.13
1295.00	381.51
1296.00	409.59
1297.00	427.54
1298.00	464.99
1299.00	468.89
1300.00	464.21
1301.00	427.54
1302.00	437.68
1303.00	443.14
1304.00	465.77
1305.00	434.56
1306.00	432.22
1307.00	419.74
1308.00	424.42
1309.00	423.64
1310.00	387.75
1311.00	390.09
1312.00	385.41
1313.00	411.93
1314.00	403.35
1315.00	369.02
1316.00	364.34
1317.00	376.83
1318.00	393.99
1319.00	385.41
1320.00	362.00
1321.00	365.12
1322.00	389.31
1323.00	383.07
1324.00	390.87
1325.00	384.63
1326.00	414.27
1327.00	395.55
1328.00	390.09
1329.00	366.68
1330.00	366.68
1331.00	390.87
1332.00	423.64
1333.00	467.33
1334.00	448.60
1335.00	442.36
1336.00	427.54
1337.00	433.00
1338.00	435.34
1339.00	433.78
1340.00	422.08
1341.00	404.91
1342.00	384.63
1343.00	372.15
1344.00	389.31
1345.00	381.51
1346.00	392.43
1347.00	360.44
1348.00	368.24
1349.00	362.78
1350.00	385.41
1351.00	398.67
1352.00	406.47
1353.00	393.21
1354.00	372.15
1355.00	380.73
1356.00	404.91
1357.00	429.88
1358.00	436.90
1359.00	445.48
1360.00	449.38
1361.00	425.98
1362.00	382.29
1363.00	367.46
1364.00	380.73
1365.00	397.11
