SpectraSuite Data File
++++++++++++++++++++++++++++++++++++
Date: Thu Nov 16 14:27:24 EST 2017
User: cheriyan
Dark Spectrum Present: No
Reference Spectrum Present: No
Number of Sampled Component Spectra: 1
Spectrometers: USB2+H05261
Integration Time (usec): 100000 (USB2+H05261)
Spectra Averaged: 1 (USB2+H05261)
Boxcar Smoothing: 1 (USB2+H05261)
Correct for Electrical Dark: No (USB2+H05261)
Strobe/Lamp Enabled: No (USB2+H05261)
Correct for Detector Non-linearity: No (USB2+H05261)
Correct for Stray Light: No (USB2+H05261)
Number of Pixels in Processed Spectrum: 2048
>>>>>Begin Processed Spectral Data<<<<<
0.00	346.40
1.00	346.40
2.00	305.83
3.00	293.35
4.00	252.78
5.00	243.42
6.00	210.65
7.00	227.81
8.00	214.55
9.00	211.43
10.00	188.80
11.00	216.89
12.00	226.25
13.00	215.33
14.00	188.02
15.00	173.20
16.00	173.20
17.00	206.75
18.00	249.66
19.00	274.62
20.00	281.64
21.00	253.56
22.00	287.89
23.00	314.41
24.00	341.72
25.00	340.94
26.00	343.28
27.00	360.44
28.00	344.84
29.00	340.16
30.00	344.06
31.00	379.95
32.00	374.49
33.00	375.27
34.00	368.24
35.00	379.17
36.00	369.02
37.00	376.83
38.00	380.73
39.00	394.77
40.00	393.99
41.00	421.30
42.00	439.24
43.00	420.52
44.00	407.25
45.00	383.85
46.00	381.51
47.00	374.49
48.00	383.85
49.00	408.03
50.00	411.15
51.00	428.32
52.00	453.28
53.00	448.60
54.00	436.90
55.00	408.81
56.00	412.71
57.00	401.01
58.00	408.03
59.00	396.33
60.00	404.91
61.00	383.07
62.00	355.76
63.00	369.02
64.00	384.63
65.00	428.32
66.00	401.79
67.00	404.91
68.00	411.93
69.00	414.27
70.00	410.37
71.00	403.35
72.00	384.63
73.00	358.88
74.00	326.89
75.00	342.50
76.00	351.08
77.00	365.12
78.00	361.22
79.00	372.93
80.00	394.77
81.00	406.47
82.00	397.11
83.00	382.29
84.00	413.49
85.00	408.81
86.00	384.63
87.00	364.34
88.00	366.68
89.00	391.65
90.00	374.49
91.00	393.21
92.00	369.80
93.00	386.97
94.00	389.31
95.00	422.86
96.00	405.69
97.00	429.10
98.00	413.49
99.00	428.32
100.00	392.43
101.00	410.37
102.00	398.67
103.00	390.09
104.00	372.93
105.00	383.07
106.00	399.45
107.00	411.93
108.00	414.27
109.00	424.42
110.00	413.49
111.00	391.65
112.00	376.05
113.00	352.64
114.00	364.34
115.00	354.98
116.00	408.81
117.00	410.37
118.00	416.62
119.00	392.43
120.00	380.73
121.00	390.87
122.00	401.01
123.00	416.62
124.00	408.81
125.00	406.47
126.00	402.57
127.00	379.17
128.00	347.96
129.00	342.50
130.00	350.30
131.00	361.22
132.00	347.96
133.00	353.42
134.00	343.28
135.00	360.44
136.00	349.52
137.00	360.44
138.00	382.29
139.00	404.91
140.00	408.03
141.00	388.53
142.00	375.27
143.00	397.11
144.00	381.51
145.00	408.81
146.00	401.01
147.00	423.64
148.00	409.59
149.00	422.08
150.00	437.68
151.00	446.26
152.00	422.08
153.00	387.75
154.00	392.43
155.00	381.51
156.00	373.71
157.00	357.32
158.00	393.21
159.00	411.15
160.00	411.93
161.00	383.85
162.00	376.05
163.00	380.73
164.00	375.27
165.00	384.63
166.00	385.41
167.00	401.01
168.00	401.79
169.00	391.65
170.00	396.33
171.00	413.49
172.00	408.81
173.00	398.67
174.00	372.93
175.00	369.80
176.00	359.66
177.00	364.34
178.00	376.05
179.00	385.41
180.00	398.67
181.00	417.40
182.00	408.81
183.00	406.47
184.00	371.36
185.00	372.93
186.00	364.34
187.00	379.95
188.00	384.63
189.00	376.05
190.00	376.05
191.00	375.27
192.00	407.25
193.00	394.77
194.00	402.57
195.00	365.12
196.00	370.58
197.00	379.95
198.00	376.83
199.00	375.27
200.00	353.42
201.00	384.63
202.00	386.19
203.00	403.35
204.00	388.53
205.00	397.89
206.00	390.09
207.00	369.02
208.00	372.93
209.00	394.77
210.00	422.08
211.00	424.42
212.00	425.20
213.00	403.35
214.00	383.85
215.00	382.29
216.00	408.03
217.00	429.10
218.00	418.18
219.00	431.44
220.00	436.12
221.00	429.10
222.00	412.71
223.00	402.57
224.00	392.43
225.00	390.09
226.00	387.75
227.00	393.99
228.00	418.96
229.00	386.19
230.00	385.41
231.00	361.22
232.00	379.95
233.00	385.41
234.00	366.68
235.00	361.22
236.00	354.20
237.00	368.24
238.00	366.68
239.00	365.90
240.00	372.15
241.00	383.85
242.00	408.03
243.00	385.41
244.00	405.69
245.00	399.45
246.00	417.40
247.00	396.33
248.00	397.89
249.00	391.65
250.00	399.45
251.00	390.09
252.00	405.69
253.00	402.57
254.00	401.01
255.00	390.09
256.00	391.65
257.00	379.95
258.00	384.63
259.00	385.41
260.00	400.23
261.00	401.79
262.00	409.59
263.00	418.96
264.00	404.91
265.00	411.93
266.00	386.19
267.00	408.03
268.00	415.06
269.00	399.45
270.00	375.27
271.00	340.16
272.00	367.46
273.00	394.77
274.00	414.27
275.00	404.91
276.00	395.55
277.00	384.63
278.00	382.29
279.00	400.23
280.00	415.84
281.00	429.10
282.00	407.25
283.00	422.86
284.00	417.40
285.00	410.37
286.00	362.78
287.00	362.78
288.00	367.46
289.00	403.35
290.00	406.47
291.00	413.49
292.00	411.93
293.00	414.27
294.00	417.40
295.00	404.13
296.00	376.05
297.00	367.46
298.00	370.58
299.00	395.55
300.00	397.89
301.00	409.59
302.00	389.31
303.00	379.17
304.00	359.66
305.00	379.17
306.00	376.05
307.00	389.31
308.00	394.77
309.00	386.19
310.00	370.58
311.00	370.58
312.00	381.51
313.00	378.39
314.00	365.90
315.00	352.64
316.00	379.17
317.00	377.61
318.00	404.13
319.00	393.99
320.00	404.13
321.00	383.07
322.00	395.55
323.00	382.29
324.00	390.87
325.00	378.39
326.00	386.97
327.00	371.36
328.00	365.12
329.00	357.32
330.00	366.68
331.00	372.15
332.00	380.73
333.00	399.45
334.00	397.11
335.00	381.51
336.00	376.83
337.00	380.73
338.00	387.75
339.00	383.07
340.00	419.74
341.00	411.15
342.00	414.27
343.00	351.08
344.00	376.05
345.00	362.00
346.00	401.79
347.00	398.67
348.00	401.01
349.00	389.31
350.00	415.06
351.00	431.44
352.00	427.54
353.00	401.79
354.00	384.63
355.00	398.67
356.00	404.91
357.00	423.64
358.00	415.84
359.00	405.69
360.00	400.23
361.00	415.06
362.00	427.54
363.00	433.78
364.00	406.47
365.00	402.57
366.00	366.68
367.00	362.00
368.00	369.80
369.00	383.85
370.00	405.69
371.00	399.45
372.00	430.66
373.00	431.44
374.00	429.10
375.00	417.40
376.00	418.18
377.00	431.44
378.00	420.52
379.00	403.35
380.00	388.53
381.00	412.71
382.00	410.37
383.00	404.91
384.00	405.69
385.00	431.44
386.00	419.74
387.00	389.31
388.00	371.36
389.00	377.61
390.00	380.73
391.00	403.35
392.00	432.22
393.00	422.86
394.00	399.45
395.00	372.93
396.00	404.13
397.00	411.15
398.00	411.15
399.00	417.40
400.00	419.74
401.00	425.98
402.00	404.91
403.00	386.19
404.00	395.55
405.00	411.93
406.00	426.76
407.00	398.67
408.00	401.79
409.00	397.89
410.00	440.80
411.00	415.06
412.00	449.38
413.00	425.98
414.00	458.75
415.00	414.27
416.00	425.98
417.00	385.41
418.00	417.40
419.00	397.89
420.00	426.76
421.00	401.01
422.00	393.99
423.00	385.41
424.00	392.43
425.00	404.13
426.00	394.77
427.00	390.87
428.00	380.73
429.00	395.55
430.00	407.25
431.00	404.91
432.00	374.49
433.00	341.72
434.00	337.04
435.00	362.78
436.00	393.99
437.00	388.53
438.00	383.85
439.00	366.68
440.00	376.05
441.00	401.79
442.00	418.96
443.00	429.88
444.00	402.57
445.00	386.19
446.00	369.80
447.00	360.44
448.00	359.66
449.00	372.93
450.00	355.76
451.00	374.49
452.00	407.25
453.00	421.30
454.00	402.57
455.00	379.95
456.00	427.54
457.00	456.40
458.00	454.06
459.00	411.15
460.00	376.83
461.00	377.61
462.00	375.27
463.00	383.07
464.00	362.78
465.00	383.85
466.00	394.77
467.00	406.47
468.00	397.11
469.00	391.65
470.00	393.99
471.00	379.17
472.00	379.95
473.00	355.76
474.00	361.22
475.00	359.66
476.00	386.19
477.00	410.37
478.00	422.08
479.00	423.64
480.00	413.49
481.00	413.49
482.00	424.42
483.00	417.40
484.00	400.23
485.00	397.89
486.00	396.33
487.00	416.62
488.00	414.27
489.00	430.66
490.00	415.06
491.00	412.71
492.00	387.75
493.00	390.09
494.00	419.74
495.00	428.32
496.00	434.56
497.00	413.49
498.00	401.79
499.00	381.51
500.00	374.49
501.00	390.09
502.00	393.99
503.00	408.81
504.00	419.74
505.00	416.62
506.00	425.98
507.00	419.74
508.00	461.09
509.00	425.20
510.00	436.12
511.00	418.18
512.00	443.92
513.00	448.60
514.00	458.75
515.00	436.12
516.00	413.49
517.00	379.17
518.00	369.80
519.00	362.00
520.00	369.02
521.00	379.17
522.00	387.75
523.00	409.59
524.00	419.74
525.00	402.57
526.00	378.39
527.00	377.61
528.00	386.19
529.00	415.06
530.00	382.29
531.00	385.41
532.00	361.22
533.00	369.02
534.00	370.58
535.00	372.93
536.00	374.49
537.00	377.61
538.00	383.07
539.00	413.49
540.00	395.55
541.00	397.89
542.00	397.11
543.00	434.56
544.00	424.42
545.00	391.65
546.00	351.86
547.00	374.49
548.00	395.55
549.00	405.69
550.00	411.93
551.00	435.34
552.00	443.14
553.00	425.98
554.00	393.99
555.00	415.84
556.00	408.81
557.00	422.08
558.00	405.69
559.00	401.79
560.00	378.39
561.00	380.73
562.00	392.43
563.00	400.23
564.00	400.23
565.00	386.97
566.00	417.40
567.00	411.93
568.00	418.96
569.00	406.47
570.00	409.59
571.00	422.08
572.00	402.57
573.00	415.84
574.00	429.10
575.00	433.78
576.00	444.70
577.00	428.32
578.00	425.98
579.00	390.09
580.00	383.85
581.00	399.45
582.00	402.57
583.00	409.59
584.00	391.65
585.00	399.45
586.00	412.71
587.00	413.49
588.00	393.21
589.00	389.31
590.00	404.13
591.00	434.56
592.00	414.27
593.00	398.67
594.00	379.17
595.00	362.00
596.00	382.29
597.00	401.01
598.00	418.96
599.00	438.46
600.00	439.24
601.00	443.92
602.00	389.31
603.00	385.41
604.00	372.15
605.00	384.63
606.00	371.36
607.00	373.71
608.00	376.83
609.00	365.12
610.00	324.55
611.00	344.06
612.00	362.78
613.00	424.42
614.00	425.20
615.00	435.34
616.00	440.80
617.00	447.04
618.00	451.72
619.00	437.68
620.00	425.20
621.00	398.67
622.00	381.51
623.00	371.36
624.00	365.90
625.00	387.75
626.00	378.39
627.00	393.99
628.00	381.51
629.00	408.81
630.00	408.81
631.00	421.30
632.00	408.03
633.00	427.54
634.00	446.26
635.00	516.48
636.00	605.42
637.00	673.29
638.00	675.63
639.00	628.04
640.00	586.69
641.00	539.88
642.00	507.90
643.00	447.82
644.00	440.02
645.00	422.86
646.00	435.34
647.00	425.20
648.00	395.55
649.00	372.93
650.00	382.29
651.00	422.08
652.00	459.53
653.00	432.22
654.00	440.80
655.00	437.68
656.00	471.23
657.00	446.26
658.00	436.12
659.00	405.69
660.00	417.40
661.00	391.65
662.00	418.18
663.00	412.71
664.00	429.10
665.00	414.27
666.00	391.65
667.00	390.87
668.00	389.31
669.00	402.57
670.00	385.41
671.00	379.17
672.00	390.87
673.00	405.69
674.00	409.59
675.00	417.40
676.00	436.12
677.00	469.67
678.00	454.84
679.00	458.75
680.00	449.38
681.00	457.96
682.00	450.94
683.00	417.40
684.00	396.33
685.00	380.73
686.00	387.75
687.00	401.79
688.00	391.65
689.00	397.89
690.00	393.21
691.00	401.79
692.00	414.27
693.00	393.99
694.00	387.75
695.00	388.53
696.00	404.13
697.00	402.57
698.00	392.43
699.00	411.93
700.00	433.78
701.00	441.58
702.00	430.66
703.00	422.86
704.00	418.96
705.00	409.59
706.00	416.62
707.00	410.37
708.00	428.32
709.00	410.37
710.00	425.20
711.00	419.74
712.00	420.52
713.00	397.89
714.00	409.59
715.00	427.54
716.00	422.08
717.00	393.21
718.00	432.22
719.00	450.16
720.00	470.45
721.00	421.30
722.00	436.90
723.00	433.78
724.00	404.91
725.00	390.09
726.00	378.39
727.00	419.74
728.00	406.47
729.00	429.88
730.00	408.03
731.00	418.96
732.00	402.57
733.00	406.47
734.00	381.51
735.00	392.43
736.00	393.99
737.00	421.30
738.00	410.37
739.00	404.91
740.00	378.39
741.00	366.68
742.00	368.24
743.00	401.79
744.00	407.25
745.00	394.77
746.00	371.36
747.00	355.76
748.00	383.85
749.00	375.27
750.00	394.77
751.00	390.87
752.00	412.71
753.00	429.88
754.00	425.20
755.00	426.76
756.00	402.57
757.00	394.77
758.00	379.95
759.00	395.55
760.00	394.77
761.00	418.96
762.00	419.74
763.00	415.84
764.00	429.10
765.00	404.91
766.00	403.35
767.00	375.27
768.00	382.29
769.00	393.21
770.00	383.85
771.00	396.33
772.00	397.11
773.00	423.64
774.00	388.53
775.00	418.18
776.00	393.21
777.00	429.88
778.00	404.91
779.00	416.62
780.00	382.29
781.00	390.09
782.00	373.71
783.00	472.01
784.00	460.31
785.00	461.09
786.00	388.53
787.00	387.75
788.00	409.59
789.00	412.71
790.00	401.79
791.00	361.22
792.00	360.44
793.00	375.27
794.00	394.77
795.00	400.23
796.00	393.99
797.00	411.93
798.00	404.91
799.00	415.84
800.00	404.91
801.00	408.03
802.00	398.67
803.00	379.95
804.00	392.43
805.00	389.31
806.00	395.55
807.00	383.07
808.00	386.97
809.00	412.71
810.00	419.74
811.00	418.18
812.00	423.64
813.00	413.49
814.00	424.42
815.00	418.96
816.00	425.20
817.00	423.64
818.00	421.30
819.00	417.40
820.00	383.85
821.00	381.51
822.00	398.67
823.00	432.22
824.00	425.98
825.00	398.67
826.00	397.89
827.00	401.01
828.00	418.18
829.00	423.64
830.00	436.12
831.00	433.00
832.00	404.13
833.00	372.93
834.00	372.15
835.00	376.83
836.00	393.99
837.00	389.31
838.00	395.55
839.00	382.29
840.00	382.29
841.00	368.24
842.00	373.71
843.00	377.61
844.00	440.80
845.00	452.50
846.00	478.25
847.00	444.70
848.00	450.16
849.00	428.32
850.00	397.11
851.00	370.58
852.00	327.68
853.00	365.12
854.00	369.02
855.00	381.51
856.00	377.61
857.00	375.27
858.00	423.64
859.00	427.54
860.00	438.46
861.00	391.65
862.00	390.87
863.00	412.71
864.00	445.48
865.00	412.71
866.00	391.65
867.00	374.49
868.00	358.10
869.00	358.10
870.00	365.12
871.00	417.40
872.00	417.40
873.00	412.71
874.00	396.33
875.00	402.57
876.00	408.81
877.00	405.69
878.00	422.08
879.00	411.15
880.00	426.76
881.00	434.56
882.00	452.50
883.00	441.58
884.00	410.37
885.00	418.18
886.00	422.86
887.00	425.98
888.00	396.33
889.00	422.08
890.00	428.32
891.00	446.26
892.00	425.98
893.00	422.86
894.00	411.15
895.00	400.23
896.00	401.01
897.00	427.54
898.00	437.68
899.00	440.80
900.00	422.08
901.00	418.96
902.00	409.59
903.00	410.37
904.00	393.21
905.00	397.11
906.00	404.91
907.00	417.40
908.00	411.93
909.00	738.05
910.00	751.31
911.00	756.77
912.00	415.06
913.00	387.75
914.00	378.39
915.00	367.46
916.00	374.49
917.00	402.57
918.00	407.25
919.00	408.03
920.00	390.87
921.00	418.96
922.00	425.20
923.00	427.54
924.00	421.30
925.00	396.33
926.00	392.43
927.00	396.33
928.00	410.37
929.00	416.62
930.00	418.18
931.00	433.00
932.00	423.64
933.00	399.45
934.00	385.41
935.00	396.33
936.00	396.33
937.00	406.47
938.00	430.66
939.00	447.82
940.00	469.67
941.00	420.52
942.00	433.00
943.00	410.37
944.00	429.88
945.00	412.71
946.00	395.55
947.00	383.07
948.00	373.71
949.00	386.97
950.00	413.49
951.00	431.44
952.00	425.98
953.00	409.59
954.00	376.05
955.00	397.11
956.00	391.65
957.00	411.93
958.00	382.29
959.00	385.41
960.00	379.95
961.00	401.01
962.00	408.03
963.00	422.08
964.00	408.03
965.00	395.55
966.00	382.29
967.00	406.47
968.00	422.86
969.00	418.96
970.00	405.69
971.00	401.01
972.00	388.53
973.00	389.31
974.00	379.17
975.00	391.65
976.00	369.80
977.00	370.58
978.00	388.53
979.00	406.47
980.00	432.22
981.00	440.80
982.00	449.38
983.00	449.38
984.00	454.06
985.00	425.20
986.00	396.33
987.00	369.02
988.00	384.63
989.00	392.43
990.00	364.34
991.00	372.15
992.00	384.63
993.00	413.49
994.00	406.47
995.00	387.75
996.00	392.43
997.00	394.77
998.00	387.75
999.00	385.41
1000.00	403.35
1001.00	403.35
1002.00	417.40
1003.00	393.21
1004.00	415.84
1005.00	404.91
1006.00	411.15
1007.00	409.59
1008.00	394.77
1009.00	420.52
1010.00	411.15
1011.00	443.14
1012.00	422.86
1013.00	420.52
1014.00	399.45
1015.00	401.79
1016.00	411.93
1017.00	402.57
1018.00	383.85
1019.00	370.58
1020.00	394.77
1021.00	411.93
1022.00	439.24
1023.00	434.56
1024.00	425.98
1025.00	429.10
1026.00	415.06
1027.00	413.49
1028.00	375.27
1029.00	379.17
1030.00	363.56
1031.00	387.75
1032.00	379.17
1033.00	395.55
1034.00	388.53
1035.00	401.01
1036.00	411.93
1037.00	411.15
1038.00	404.91
1039.00	389.31
1040.00	386.97
1041.00	393.99
1042.00	421.30
1043.00	420.52
1044.00	409.59
1045.00	413.49
1046.00	421.30
1047.00	404.91
1048.00	390.09
1049.00	417.40
1050.00	415.06
1051.00	407.25
1052.00	345.62
1053.00	374.49
1054.00	351.08
1055.00	365.90
1056.00	369.02
1057.00	385.41
1058.00	386.97
1059.00	366.68
1060.00	379.17
1061.00	399.45
1062.00	413.49
1063.00	408.03
1064.00	402.57
1065.00	396.33
1066.00	415.84
1067.00	408.81
1068.00	402.57
1069.00	390.87
1070.00	416.62
1071.00	427.54
1072.00	435.34
1073.00	411.15
1074.00	415.84
1075.00	395.55
1076.00	379.17
1077.00	395.55
1078.00	397.89
1079.00	454.84
1080.00	423.64
1081.00	413.49
1082.00	386.19
1083.00	383.85
1084.00	403.35
1085.00	388.53
1086.00	423.64
1087.00	408.81
1088.00	420.52
1089.00	410.37
1090.00	413.49
1091.00	386.19
1092.00	381.51
1093.00	393.21
1094.00	419.74
1095.00	447.04
1096.00	436.90
1097.00	424.42
1098.00	386.97
1099.00	373.71
1100.00	372.15
1101.00	376.05
1102.00	419.74
1103.00	428.32
1104.00	412.71
1105.00	365.90
1106.00	360.44
1107.00	381.51
1108.00	408.81
1109.00	411.15
1110.00	399.45
1111.00	385.41
1112.00	396.33
1113.00	430.66
1114.00	433.78
1115.00	422.08
1116.00	404.91
1117.00	422.08
1118.00	420.52
1119.00	397.89
1120.00	399.45
1121.00	427.54
1122.00	463.43
1123.00	437.68
1124.00	420.52
1125.00	404.13
1126.00	418.18
1127.00	410.37
1128.00	393.21
1129.00	390.87
1130.00	407.25
1131.00	412.71
1132.00	426.76
1133.00	406.47
1134.00	415.06
1135.00	405.69
1136.00	417.40
1137.00	410.37
1138.00	390.09
1139.00	382.29
1140.00	393.21
1141.00	393.99
1142.00	404.13
1143.00	397.11
1144.00	418.18
1145.00	407.25
1146.00	410.37
1147.00	393.21
1148.00	404.91
1149.00	411.15
1150.00	438.46
1151.00	429.10
1152.00	436.12
1153.00	422.86
1154.00	418.96
1155.00	426.76
1156.00	412.71
1157.00	411.93
1158.00	380.73
1159.00	370.58
1160.00	390.09
1161.00	386.19
1162.00	416.62
1163.00	434.56
1164.00	472.01
1165.00	479.81
1166.00	457.96
1167.00	445.48
1168.00	430.66
1169.00	438.46
1170.00	415.84
1171.00	418.96
1172.00	413.49
1173.00	427.54
1174.00	413.49
1175.00	425.20
1176.00	430.66
1177.00	447.04
1178.00	435.34
1179.00	451.72
1180.00	461.09
1181.00	466.55
1182.00	459.53
1183.00	453.28
1184.00	435.34
1185.00	418.96
1186.00	401.01
1187.00	420.52
1188.00	399.45
1189.00	400.23
1190.00	372.15
1191.00	397.89
1192.00	411.15
1193.00	426.76
1194.00	432.22
1195.00	425.98
1196.00	435.34
1197.00	418.96
1198.00	433.00
1199.00	436.12
1200.00	445.48
1201.00	432.22
1202.00	429.10
1203.00	427.54
1204.00	440.80
1205.00	419.74
1206.00	411.15
1207.00	387.75
1208.00	413.49
1209.00	426.76
1210.00	410.37
1211.00	384.63
1212.00	403.35
1213.00	412.71
1214.00	421.30
1215.00	397.89
1216.00	389.31
1217.00	366.68
1218.00	363.56
1219.00	396.33
1220.00	410.37
1221.00	406.47
1222.00	395.55
1223.00	408.81
1224.00	421.30
1225.00	412.71
1226.00	379.95
1227.00	363.56
1228.00	379.17
1229.00	405.69
1230.00	425.20
1231.00	440.80
1232.00	444.70
1233.00	438.46
1234.00	425.98
1235.00	415.06
1236.00	388.53
1237.00	354.98
1238.00	377.61
1239.00	393.21
1240.00	429.88
1241.00	425.20
1242.00	425.20
1243.00	444.70
1244.00	431.44
1245.00	419.74
1246.00	386.97
1247.00	376.05
1248.00	383.07
1249.00	386.97
1250.00	385.41
1251.00	389.31
1252.00	402.57
1253.00	412.71
1254.00	396.33
1255.00	382.29
1256.00	377.61
1257.00	405.69
1258.00	417.40
1259.00	422.86
1260.00	418.96
1261.00	388.53
1262.00	379.95
1263.00	378.39
1264.00	390.87
1265.00	406.47
1266.00	411.15
1267.00	421.30
1268.00	404.91
1269.00	385.41
1270.00	384.63
1271.00	376.05
1272.00	389.31
1273.00	386.19
1274.00	413.49
1275.00	418.96
1276.00	443.92
1277.00	440.80
1278.00	438.46
1279.00	407.25
1280.00	412.71
1281.00	418.96
1282.00	418.18
1283.00	428.32
1284.00	422.86
1285.00	453.28
1286.00	434.56
1287.00	440.80
1288.00	424.42
1289.00	437.68
1290.00	419.74
1291.00	415.84
1292.00	383.07
1293.00	406.47
1294.00	398.67
1295.00	404.91
1296.00	387.75
1297.00	370.58
1298.00	397.11
1299.00	422.08
1300.00	448.60
1301.00	436.12
1302.00	414.27
1303.00	415.84
1304.00	430.66
1305.00	438.46
1306.00	450.94
1307.00	415.84
1308.00	402.57
1309.00	374.49
1310.00	393.99
1311.00	420.52
1312.00	433.00
1313.00	450.94
1314.00	425.98
1315.00	429.10
1316.00	399.45
1317.00	408.81
1318.00	393.21
1319.00	421.30
1320.00	411.93
1321.00	415.84
1322.00	394.77
1323.00	397.11
1324.00	424.42
1325.00	450.16
1326.00	451.72
1327.00	443.92
1328.00	456.40
1329.00	471.23
1330.00	471.23
1331.00	461.87
1332.00	449.38
1333.00	478.25
1334.00	462.65
1335.00	469.67
1336.00	422.86
1337.00	415.06
1338.00	424.42
1339.00	450.94
1340.00	436.90
1341.00	422.08
1342.00	404.91
1343.00	394.77
1344.00	392.43
1345.00	408.03
1346.00	422.86
1347.00	406.47
1348.00	378.39
1349.00	388.53
1350.00	398.67
1351.00	424.42
1352.00	425.20
1353.00	428.32
1354.00	408.03
1355.00	403.35
1356.00	389.31
1357.00	409.59
1358.00	410.37
1359.00	438.46
1360.00	410.37
1361.00	444.70
1362.00	425.98
1363.00	433.78
1364.00	423.64
1365.00	416.62
