SpectraSuite Data File
++++++++++++++++++++++++++++++++++++
Date: Thu Nov 16 14:27:22 EST 2017
User: cheriyan
Dark Spectrum Present: No
Reference Spectrum Present: No
Number of Sampled Component Spectra: 1
Spectrometers: USB2+H05261
Integration Time (usec): 100000 (USB2+H05261)
Spectra Averaged: 1 (USB2+H05261)
Boxcar Smoothing: 1 (USB2+H05261)
Correct for Electrical Dark: No (USB2+H05261)
Strobe/Lamp Enabled: No (USB2+H05261)
Correct for Detector Non-linearity: No (USB2+H05261)
Correct for Stray Light: No (USB2+H05261)
Number of Pixels in Processed Spectrum: 2048
>>>>>Begin Processed Spectral Data<<<<<
0.00	285.55
1.00	285.55
2.00	259.02
3.00	237.17
4.00	230.15
5.00	227.03
6.00	228.59
7.00	211.43
8.00	216.89
9.00	235.61
10.00	234.83
11.00	243.42
12.00	237.17
13.00	261.36
14.00	264.48
15.00	273.06
16.00	239.51
17.00	244.20
18.00	223.13
19.00	259.80
20.00	254.34
21.00	260.58
22.00	261.36
23.00	266.04
24.00	289.45
25.00	305.83
26.00	309.73
27.00	320.65
28.00	298.81
29.00	325.33
30.00	319.09
31.00	335.48
32.00	310.51
33.00	326.89
34.00	340.94
35.00	388.53
36.00	386.97
37.00	372.15
38.00	364.34
39.00	386.19
40.00	416.62
41.00	398.67
42.00	406.47
43.00	397.11
44.00	413.49
45.00	385.41
46.00	358.10
47.00	363.56
48.00	386.97
49.00	422.08
50.00	420.52
51.00	401.01
52.00	414.27
53.00	400.23
54.00	402.57
55.00	379.95
56.00	398.67
57.00	408.03
58.00	403.35
59.00	390.87
60.00	383.85
61.00	393.99
62.00	387.75
63.00	389.31
64.00	372.93
65.00	381.51
66.00	361.22
67.00	370.58
68.00	394.77
69.00	400.23
70.00	408.81
71.00	393.99
72.00	393.99
73.00	395.55
74.00	376.83
75.00	364.34
76.00	365.12
77.00	370.58
78.00	399.45
79.00	404.91
80.00	393.99
81.00	391.65
82.00	362.78
83.00	367.46
84.00	349.52
85.00	363.56
86.00	345.62
87.00	329.24
88.00	338.60
89.00	349.52
90.00	385.41
91.00	401.01
92.00	397.11
93.00	403.35
94.00	383.85
95.00	383.07
96.00	384.63
97.00	362.00
98.00	386.97
99.00	384.63
100.00	396.33
101.00	381.51
102.00	354.98
103.00	349.52
104.00	366.68
105.00	380.73
106.00	375.27
107.00	356.54
108.00	333.92
109.00	379.17
110.00	386.97
111.00	411.15
112.00	387.75
113.00	413.49
114.00	414.27
115.00	404.91
116.00	383.85
117.00	355.76
118.00	351.86
119.00	351.86
120.00	379.17
121.00	385.41
122.00	398.67
123.00	408.03
124.00	433.00
125.00	409.59
126.00	405.69
127.00	376.05
128.00	397.11
129.00	386.97
130.00	390.09
131.00	369.02
132.00	365.90
133.00	379.17
134.00	381.51
135.00	383.07
136.00	375.27
137.00	381.51
138.00	387.75
139.00	407.25
140.00	414.27
141.00	427.54
142.00	411.93
143.00	393.99
144.00	386.97
145.00	393.99
146.00	397.89
147.00	390.87
148.00	380.73
149.00	380.73
150.00	364.34
151.00	363.56
152.00	381.51
153.00	399.45
154.00	420.52
155.00	437.68
156.00	444.70
157.00	431.44
158.00	404.91
159.00	386.97
160.00	369.80
161.00	357.32
162.00	368.24
163.00	372.93
164.00	377.61
165.00	388.53
166.00	396.33
167.00	405.69
168.00	388.53
169.00	415.06
170.00	389.31
171.00	375.27
172.00	326.89
173.00	364.34
174.00	395.55
175.00	409.59
176.00	425.98
177.00	418.96
178.00	408.81
179.00	400.23
180.00	398.67
181.00	398.67
182.00	393.99
183.00	403.35
184.00	429.88
185.00	398.67
186.00	373.71
187.00	342.50
188.00	376.05
189.00	377.61
190.00	405.69
191.00	372.15
192.00	384.63
193.00	384.63
194.00	385.41
195.00	354.98
196.00	350.30
197.00	366.68
198.00	397.89
199.00	395.55
200.00	408.03
201.00	420.52
202.00	401.79
203.00	393.21
204.00	366.68
205.00	393.21
206.00	376.05
207.00	392.43
208.00	385.41
209.00	399.45
210.00	393.99
211.00	409.59
212.00	417.40
213.00	419.74
214.00	389.31
215.00	394.77
216.00	420.52
217.00	433.78
218.00	419.74
219.00	397.89
220.00	386.97
221.00	393.21
222.00	394.77
223.00	414.27
224.00	430.66
225.00	443.14
226.00	442.36
227.00	416.62
228.00	422.08
229.00	419.74
230.00	440.02
231.00	419.74
232.00	408.81
233.00	386.97
234.00	386.19
235.00	365.90
236.00	354.20
237.00	337.04
238.00	330.02
239.00	352.64
240.00	374.49
241.00	389.31
242.00	385.41
243.00	373.71
244.00	401.79
245.00	397.89
246.00	390.09
247.00	399.45
248.00	407.25
249.00	388.53
250.00	351.86
251.00	344.06
252.00	372.93
253.00	383.85
254.00	379.17
255.00	389.31
256.00	390.87
257.00	386.97
258.00	390.87
259.00	376.05
260.00	401.79
261.00	382.29
262.00	404.91
263.00	400.23
264.00	412.71
265.00	401.01
266.00	388.53
267.00	385.41
268.00	401.79
269.00	409.59
270.00	416.62
271.00	426.76
272.00	431.44
273.00	417.40
274.00	405.69
275.00	383.07
276.00	411.93
277.00	404.91
278.00	426.76
279.00	395.55
280.00	402.57
281.00	374.49
282.00	381.51
283.00	375.27
284.00	386.97
285.00	404.13
286.00	416.62
287.00	431.44
288.00	415.84
289.00	411.15
290.00	414.27
291.00	406.47
292.00	404.13
293.00	386.19
294.00	374.49
295.00	358.10
296.00	367.46
297.00	374.49
298.00	388.53
299.00	388.53
300.00	383.07
301.00	381.51
302.00	404.91
303.00	410.37
304.00	404.91
305.00	387.75
306.00	401.79
307.00	407.25
308.00	399.45
309.00	390.87
310.00	384.63
311.00	391.65
312.00	402.57
313.00	377.61
314.00	367.46
315.00	351.86
316.00	376.05
317.00	364.34
318.00	361.22
319.00	355.76
320.00	396.33
321.00	398.67
322.00	408.03
323.00	367.46
324.00	381.51
325.00	393.21
326.00	394.77
327.00	394.77
328.00	362.00
329.00	365.90
330.00	346.40
331.00	369.02
332.00	383.85
333.00	413.49
334.00	411.93
335.00	392.43
336.00	378.39
337.00	393.21
338.00	397.11
339.00	370.58
340.00	361.22
341.00	399.45
342.00	400.23
343.00	390.87
344.00	381.51
345.00	394.77
346.00	411.93
347.00	379.17
348.00	415.06
349.00	390.09
350.00	383.07
351.00	366.68
352.00	403.35
353.00	456.40
354.00	449.38
355.00	436.90
356.00	389.31
357.00	402.57
358.00	393.21
359.00	426.76
360.00	403.35
361.00	405.69
362.00	376.05
363.00	386.97
364.00	368.24
365.00	390.09
366.00	377.61
367.00	404.91
368.00	435.34
369.00	454.84
370.00	469.67
371.00	417.40
372.00	408.03
373.00	383.85
374.00	411.93
375.00	426.76
376.00	422.86
377.00	398.67
378.00	369.80
379.00	368.24
380.00	376.05
381.00	387.75
382.00	404.13
383.00	406.47
384.00	418.18
385.00	408.81
386.00	401.79
387.00	389.31
388.00	390.09
389.00	408.81
390.00	433.00
391.00	443.14
392.00	425.20
393.00	400.23
394.00	400.23
395.00	418.18
396.00	425.20
397.00	423.64
398.00	436.12
399.00	453.28
400.00	454.06
401.00	425.20
402.00	406.47
403.00	415.06
404.00	419.74
405.00	422.08
406.00	387.75
407.00	383.07
408.00	380.73
409.00	399.45
410.00	408.03
411.00	417.40
412.00	440.80
413.00	439.24
414.00	454.84
415.00	442.36
416.00	457.96
417.00	438.46
418.00	418.96
419.00	372.93
420.00	387.75
421.00	390.87
422.00	414.27
423.00	407.25
424.00	428.32
425.00	446.26
426.00	433.00
427.00	408.81
428.00	406.47
429.00	408.81
430.00	397.89
431.00	387.75
432.00	358.10
433.00	389.31
434.00	392.43
435.00	408.81
436.00	385.41
437.00	403.35
438.00	404.91
439.00	425.98
440.00	402.57
441.00	426.76
442.00	429.10
443.00	441.58
444.00	412.71
445.00	389.31
446.00	378.39
447.00	397.11
448.00	395.55
449.00	371.36
450.00	367.46
451.00	365.12
452.00	380.73
453.00	383.07
454.00	390.87
455.00	404.13
456.00	400.23
457.00	399.45
458.00	390.09
459.00	385.41
460.00	392.43
461.00	394.77
462.00	411.15
463.00	402.57
464.00	398.67
465.00	386.19
466.00	383.07
467.00	388.53
468.00	386.19
469.00	411.15
470.00	404.13
471.00	419.74
472.00	386.19
473.00	398.67
474.00	381.51
475.00	396.33
476.00	391.65
477.00	396.33
478.00	400.23
479.00	401.79
480.00	404.13
481.00	407.25
482.00	407.25
483.00	422.86
484.00	441.58
485.00	437.68
486.00	425.98
487.00	404.91
488.00	409.59
489.00	425.98
490.00	418.18
491.00	409.59
492.00	392.43
493.00	406.47
494.00	435.34
495.00	446.26
496.00	421.30
497.00	376.83
498.00	357.32
499.00	348.74
500.00	379.17
501.00	386.97
502.00	397.11
503.00	391.65
504.00	388.53
505.00	412.71
506.00	434.56
507.00	443.14
508.00	468.11
509.00	460.31
510.00	484.49
511.00	461.09
512.00	467.33
513.00	436.90
514.00	429.88
515.00	408.81
516.00	386.97
517.00	374.49
518.00	377.61
519.00	397.11
520.00	395.55
521.00	379.17
522.00	366.68
523.00	393.99
524.00	409.59
525.00	437.68
526.00	420.52
527.00	404.91
528.00	397.89
529.00	396.33
530.00	411.15
531.00	413.49
532.00	426.76
533.00	387.75
534.00	393.99
535.00	398.67
536.00	415.84
537.00	399.45
538.00	369.02
539.00	390.87
540.00	393.21
541.00	409.59
542.00	433.78
543.00	440.80
544.00	463.43
545.00	461.09
546.00	433.00
547.00	391.65
548.00	367.46
549.00	378.39
550.00	376.83
551.00	364.34
552.00	363.56
553.00	401.79
554.00	420.52
555.00	446.26
556.00	435.34
557.00	443.92
558.00	426.76
559.00	436.12
560.00	427.54
561.00	430.66
562.00	383.07
563.00	373.71
564.00	366.68
565.00	405.69
566.00	418.96
567.00	417.40
568.00	405.69
569.00	390.87
570.00	397.11
571.00	420.52
572.00	421.30
573.00	428.32
574.00	393.99
575.00	393.99
576.00	351.86
577.00	374.49
578.00	359.66
579.00	395.55
580.00	369.80
581.00	377.61
582.00	375.27
583.00	379.17
584.00	378.39
585.00	428.32
586.00	433.00
587.00	413.49
588.00	363.56
589.00	384.63
590.00	426.76
591.00	434.56
592.00	433.78
593.00	443.92
594.00	443.92
595.00	405.69
596.00	372.93
597.00	380.73
598.00	390.09
599.00	402.57
600.00	387.75
601.00	413.49
602.00	406.47
603.00	406.47
604.00	382.29
605.00	385.41
606.00	397.11
607.00	412.71
608.00	419.74
609.00	426.76
610.00	392.43
611.00	398.67
612.00	373.71
613.00	405.69
614.00	404.91
615.00	421.30
616.00	403.35
617.00	390.87
618.00	374.49
619.00	376.83
620.00	383.85
621.00	398.67
622.00	406.47
623.00	397.89
624.00	411.93
625.00	422.08
626.00	430.66
627.00	393.99
628.00	397.89
629.00	396.33
630.00	411.93
631.00	406.47
632.00	425.98
633.00	475.91
634.00	508.68
635.00	572.65
636.00	626.48
637.00	706.84
638.00	701.38
639.00	645.99
640.00	568.75
641.00	527.40
642.00	487.61
643.00	445.48
644.00	433.00
645.00	446.26
646.00	458.74
647.00	437.68
648.00	407.25
649.00	414.27
650.00	436.90
651.00	457.96
652.00	444.70
653.00	400.23
654.00	452.50
655.00	457.18
656.00	501.65
657.00	433.78
658.00	431.44
659.00	407.25
660.00	410.37
661.00	400.23
662.00	418.18
663.00	411.93
664.00	403.35
665.00	377.61
666.00	386.19
667.00	404.91
668.00	426.76
669.00	411.93
670.00	411.93
671.00	383.85
672.00	404.91
673.00	417.40
674.00	427.54
675.00	411.15
676.00	425.20
677.00	455.62
678.00	475.91
679.00	489.95
680.00	474.35
681.00	455.62
682.00	393.99
683.00	377.61
684.00	390.87
685.00	412.71
686.00	423.64
687.00	395.55
688.00	390.87
689.00	388.53
690.00	418.96
691.00	436.90
692.00	418.18
693.00	422.08
694.00	404.91
695.00	418.18
696.00	401.79
697.00	395.55
698.00	401.79
699.00	395.55
700.00	408.81
701.00	390.09
702.00	420.52
703.00	433.00
704.00	451.72
705.00	427.54
706.00	385.41
707.00	378.39
708.00	415.84
709.00	424.42
710.00	422.86
711.00	379.17
712.00	397.11
713.00	393.99
714.00	386.97
715.00	401.01
716.00	393.21
717.00	420.52
718.00	462.65
719.00	482.93
720.00	479.81
721.00	413.49
722.00	413.49
723.00	406.47
724.00	440.02
725.00	421.30
726.00	425.20
727.00	390.87
728.00	398.67
729.00	398.67
730.00	390.87
731.00	388.53
732.00	386.19
733.00	411.15
734.00	414.27
735.00	418.18
736.00	411.93
737.00	415.06
738.00	408.03
739.00	418.96
740.00	408.03
741.00	415.84
742.00	405.69
743.00	445.48
744.00	441.58
745.00	435.34
746.00	410.37
747.00	433.00
748.00	429.88
749.00	415.84
750.00	401.01
751.00	393.21
752.00	397.89
753.00	390.87
754.00	417.40
755.00	405.69
756.00	409.59
757.00	407.25
758.00	406.47
759.00	413.49
760.00	404.13
761.00	416.62
762.00	392.43
763.00	404.91
764.00	422.08
765.00	437.68
766.00	436.12
767.00	425.98
768.00	407.25
769.00	383.07
770.00	365.12
771.00	377.61
772.00	395.55
773.00	404.13
774.00	415.84
775.00	411.93
776.00	415.06
777.00	414.27
778.00	412.71
779.00	403.35
780.00	397.11
781.00	397.89
782.00	394.77
783.00	467.33
784.00	461.09
785.00	470.45
786.00	400.23
787.00	408.03
788.00	407.25
789.00	394.77
790.00	373.71
791.00	355.76
792.00	357.32
793.00	360.44
794.00	399.45
795.00	393.99
796.00	413.49
797.00	397.11
798.00	415.84
799.00	404.91
800.00	411.93
801.00	381.51
802.00	393.21
803.00	400.23
804.00	418.96
805.00	410.37
806.00	388.53
807.00	403.35
808.00	414.27
809.00	429.10
810.00	429.10
811.00	401.01
812.00	372.93
813.00	368.24
814.00	394.77
815.00	404.91
816.00	387.75
817.00	393.99
818.00	411.93
819.00	417.40
820.00	412.71
821.00	398.67
822.00	404.13
823.00	419.74
824.00	405.69
825.00	388.53
826.00	344.06
827.00	369.80
828.00	402.57
829.00	425.20
830.00	440.02
831.00	410.37
832.00	416.62
833.00	407.25
834.00	423.64
835.00	389.31
836.00	375.27
837.00	381.51
838.00	411.93
839.00	425.98
840.00	408.81
841.00	410.37
842.00	405.69
843.00	421.30
844.00	420.52
845.00	419.74
846.00	417.40
847.00	409.59
848.00	420.52
849.00	413.49
850.00	422.08
851.00	408.03
852.00	415.84
853.00	396.33
854.00	373.71
855.00	368.24
856.00	394.77
857.00	409.59
858.00	412.71
859.00	415.06
860.00	423.64
861.00	442.36
862.00	434.56
863.00	433.00
864.00	421.30
865.00	414.27
866.00	428.32
867.00	425.20
868.00	431.44
869.00	418.18
870.00	412.71
871.00	400.23
872.00	390.09
873.00	391.65
874.00	414.27
875.00	424.42
876.00	414.27
877.00	399.45
878.00	393.21
879.00	396.33
880.00	403.35
881.00	424.42
882.00	439.24
883.00	435.34
884.00	412.71
885.00	399.45
886.00	386.97
887.00	381.51
888.00	400.23
889.00	418.18
890.00	449.38
891.00	422.86
892.00	408.03
893.00	380.73
894.00	386.97
895.00	406.47
896.00	408.81
897.00	393.21
898.00	365.12
899.00	379.95
900.00	406.47
901.00	433.00
902.00	428.32
903.00	436.90
904.00	415.06
905.00	404.13
906.00	362.78
907.00	334.70
908.00	324.55
909.00	725.57
910.00	763.01
911.00	780.18
912.00	396.33
913.00	393.21
914.00	385.41
915.00	379.17
916.00	379.95
917.00	403.35
918.00	427.54
919.00	436.90
920.00	425.20
921.00	426.76
922.00	422.08
923.00	415.06
924.00	422.08
925.00	383.85
926.00	369.02
927.00	333.14
928.00	360.44
929.00	375.27
930.00	406.47
931.00	394.77
932.00	402.57
933.00	373.71
934.00	406.47
935.00	418.96
936.00	445.48
937.00	439.24
938.00	410.37
939.00	413.49
940.00	420.52
941.00	450.94
942.00	432.22
943.00	425.98
944.00	417.40
945.00	418.18
946.00	416.62
947.00	398.67
948.00	407.25
949.00	403.35
950.00	417.40
951.00	423.64
952.00	405.69
953.00	410.37
954.00	413.49
955.00	421.30
956.00	427.54
957.00	422.08
958.00	433.00
959.00	408.81
960.00	403.35
961.00	410.37
962.00	407.25
963.00	397.89
964.00	397.11
965.00	416.62
966.00	437.68
967.00	444.70
968.00	442.36
969.00	415.06
970.00	397.89
971.00	380.73
972.00	390.09
973.00	384.63
974.00	374.49
975.00	362.00
976.00	352.64
977.00	347.18
978.00	354.20
979.00	390.87
980.00	435.34
981.00	448.60
982.00	421.30
983.00	401.01
984.00	401.01
985.00	414.27
986.00	415.06
987.00	376.05
988.00	386.97
989.00	384.63
990.00	425.20
991.00	425.98
992.00	418.18
993.00	410.37
994.00	387.75
995.00	408.81
996.00	418.18
997.00	384.63
998.00	365.12
999.00	366.68
1000.00	394.77
1001.00	408.81
1002.00	388.53
1003.00	403.35
1004.00	382.29
1005.00	396.33
1006.00	398.67
1007.00	412.71
1008.00	410.37
1009.00	413.49
1010.00	438.46
1011.00	437.68
1012.00	432.22
1013.00	407.25
1014.00	407.25
1015.00	403.35
1016.00	421.30
1017.00	422.08
1018.00	424.42
1019.00	423.64
1020.00	432.22
1021.00	425.20
1022.00	432.22
1023.00	421.30
1024.00	420.52
1025.00	395.55
1026.00	397.89
1027.00	429.10
1028.00	418.96
1029.00	410.37
1030.00	397.89
1031.00	421.30
1032.00	427.54
1033.00	410.37
1034.00	402.57
1035.00	411.15
1036.00	405.69
1037.00	378.39
1038.00	358.88
1039.00	367.46
1040.00	401.01
1041.00	431.44
1042.00	438.46
1043.00	419.74
1044.00	401.79
1045.00	450.16
1046.00	455.62
1047.00	443.14
1048.00	379.17
1049.00	365.12
1050.00	372.15
1051.00	377.61
1052.00	386.19
1053.00	397.89
1054.00	393.21
1055.00	401.79
1056.00	390.09
1057.00	397.89
1058.00	398.67
1059.00	425.98
1060.00	407.25
1061.00	428.32
1062.00	412.71
1063.00	433.00
1064.00	413.49
1065.00	417.40
1066.00	423.64
1067.00	434.56
1068.00	425.98
1069.00	399.45
1070.00	371.36
1071.00	370.58
1072.00	387.75
1073.00	379.95
1074.00	383.07
1075.00	362.78
1076.00	398.67
1077.00	390.87
1078.00	386.19
1079.00	398.67
1080.00	373.71
1081.00	390.87
1082.00	348.74
1083.00	372.15
1084.00	376.05
1085.00	386.19
1086.00	409.59
1087.00	405.69
1088.00	410.37
1089.00	395.55
1090.00	399.45
1091.00	401.01
1092.00	398.67
1093.00	409.59
1094.00	406.47
1095.00	403.35
1096.00	383.07
1097.00	406.47
1098.00	443.92
1099.00	458.74
1100.00	444.70
1101.00	403.35
1102.00	425.20
1103.00	420.52
1104.00	425.20
1105.00	391.65
1106.00	392.43
1107.00	408.03
1108.00	433.00
1109.00	415.84
1110.00	408.81
1111.00	380.73
1112.00	417.40
1113.00	387.75
1114.00	377.61
1115.00	339.38
1116.00	380.73
1117.00	402.57
1118.00	424.42
1119.00	399.45
1120.00	394.77
1121.00	397.89
1122.00	443.14
1123.00	432.22
1124.00	419.74
1125.00	391.65
1126.00	426.76
1127.00	437.68
1128.00	408.81
1129.00	381.51
1130.00	393.21
1131.00	408.03
1132.00	414.27
1133.00	406.47
1134.00	404.91
1135.00	407.25
1136.00	401.79
1137.00	430.66
1138.00	416.62
1139.00	425.20
1140.00	390.09
1141.00	402.57
1142.00	393.21
1143.00	404.13
1144.00	430.66
1145.00	428.32
1146.00	448.60
1147.00	420.52
1148.00	452.50
1149.00	423.64
1150.00	443.14
1151.00	440.02
1152.00	462.65
1153.00	446.26
1154.00	427.54
1155.00	411.93
1156.00	415.84
1157.00	407.25
1158.00	404.13
1159.00	402.57
1160.00	407.25
1161.00	422.86
1162.00	425.98
1163.00	425.98
1164.00	399.45
1165.00	429.88
1166.00	454.06
1167.00	479.81
1168.00	436.90
1169.00	401.01
1170.00	381.51
1171.00	397.11
1172.00	421.30
1173.00	430.66
1174.00	425.98
1175.00	423.64
1176.00	436.12
1177.00	452.50
1178.00	453.28
1179.00	445.48
1180.00	428.32
1181.00	427.54
1182.00	441.58
1183.00	444.70
1184.00	453.28
1185.00	448.60
1186.00	429.88
1187.00	401.01
1188.00	381.51
1189.00	415.84
1190.00	407.25
1191.00	440.80
1192.00	440.80
1193.00	473.57
1194.00	438.46
1195.00	426.76
1196.00	425.98
1197.00	429.88
1198.00	422.86
1199.00	432.22
1200.00	443.92
1201.00	462.65
1202.00	433.78
1203.00	429.10
1204.00	443.14
1205.00	469.67
1206.00	470.45
1207.00	435.34
1208.00	425.20
1209.00	425.98
1210.00	434.56
1211.00	427.54
1212.00	442.36
1213.00	443.92
1214.00	434.56
1215.00	428.32
1216.00	419.74
1217.00	441.58
1218.00	415.84
1219.00	417.40
1220.00	393.21
1221.00	422.86
1222.00	416.62
1223.00	408.81
1224.00	391.65
1225.00	393.99
1226.00	405.69
1227.00	403.35
1228.00	398.67
1229.00	368.24
1230.00	371.36
1231.00	376.83
1232.00	419.74
1233.00	432.22
1234.00	454.06
1235.00	442.36
1236.00	445.48
1237.00	433.00
1238.00	434.56
1239.00	427.54
1240.00	440.02
1241.00	462.65
1242.00	468.11
1243.00	474.35
1244.00	456.40
1245.00	457.96
1246.00	436.12
1247.00	422.08
1248.00	416.62
1249.00	411.93
1250.00	413.49
1251.00	397.89
1252.00	398.67
1253.00	419.74
1254.00	437.68
1255.00	440.80
1256.00	450.16
1257.00	438.46
1258.00	427.54
1259.00	399.45
1260.00	379.17
1261.00	400.23
1262.00	397.89
1263.00	394.77
1264.00	349.52
1265.00	367.46
1266.00	391.65
1267.00	451.72
1268.00	453.28
1269.00	447.04
1270.00	438.46
1271.00	380.73
1272.00	381.51
1273.00	366.68
1274.00	382.29
1275.00	369.80
1276.00	358.10
1277.00	390.87
1278.00	420.52
1279.00	437.68
1280.00	441.58
1281.00	418.18
1282.00	415.84
1283.00	402.57
1284.00	413.49
1285.00	410.37
1286.00	417.40
1287.00	413.49
1288.00	426.76
1289.00	430.66
1290.00	419.74
1291.00	424.42
1292.00	417.40
1293.00	414.27
1294.00	385.41
1295.00	376.83
1296.00	373.71
1297.00	389.31
1298.00	415.84
1299.00	440.80
1300.00	456.40
1301.00	433.00
1302.00	420.52
1303.00	386.97
1304.00	409.59
1305.00	404.13
1306.00	400.23
1307.00	387.75
1308.00	402.57
1309.00	439.24
1310.00	441.58
1311.00	419.74
1312.00	395.55
1313.00	376.05
1314.00	387.75
1315.00	383.07
1316.00	399.45
1317.00	422.08
1318.00	422.86
1319.00	404.13
1320.00	372.93
1321.00	370.58
1322.00	382.29
1323.00	383.07
1324.00	381.51
1325.00	383.07
1326.00	372.15
1327.00	362.00
1328.00	382.29
1329.00	429.10
1330.00	441.58
1331.00	454.06
1332.00	428.32
1333.00	423.64
1334.00	377.61
1335.00	390.87
1336.00	415.84
1337.00	420.52
1338.00	432.22
1339.00	422.86
1340.00	415.84
1341.00	379.17
1342.00	364.34
1343.00	387.75
1344.00	390.87
1345.00	397.89
1346.00	398.67
1347.00	401.79
1348.00	393.99
1349.00	358.10
1350.00	362.78
1351.00	376.83
1352.00	406.47
1353.00	414.27
1354.00	383.85
1355.00	381.51
1356.00	401.01
1357.00	428.32
1358.00	433.00
1359.00	404.13
1360.00	401.79
1361.00	405.69
1362.00	437.68
1363.00	440.80
1364.00	433.78
1365.00	416.62
