SpectraSuite Data File
++++++++++++++++++++++++++++++++++++
Date: Thu Nov 16 14:27:26 EST 2017
User: cheriyan
Dark Spectrum Present: No
Reference Spectrum Present: No
Number of Sampled Component Spectra: 1
Spectrometers: USB2+H05261
Integration Time (usec): 100000 (USB2+H05261)
Spectra Averaged: 1 (USB2+H05261)
Boxcar Smoothing: 1 (USB2+H05261)
Correct for Electrical Dark: No (USB2+H05261)
Strobe/Lamp Enabled: No (USB2+H05261)
Correct for Detector Non-linearity: No (USB2+H05261)
Correct for Stray Light: No (USB2+H05261)
Number of Pixels in Processed Spectrum: 2048
>>>>>Begin Processed Spectral Data<<<<<
0.00	311.29
1.00	311.29
2.00	287.11
3.00	241.08
4.00	203.63
5.00	195.04
6.00	207.53
7.00	213.77
8.00	211.43
9.00	215.33
10.00	201.29
11.00	195.82
12.00	185.68
13.00	204.41
14.00	224.69
15.00	243.42
16.00	239.51
17.00	232.49
18.00	231.71
19.00	220.01
20.00	226.25
21.00	236.39
22.00	288.67
23.00	327.68
24.00	364.34
25.00	354.20
26.00	333.14
27.00	317.53
28.00	309.73
29.00	332.36
30.00	334.70
31.00	343.28
32.00	336.26
33.00	354.98
34.00	390.87
35.00	413.49
36.00	401.79
37.00	377.61
38.00	376.05
39.00	367.46
40.00	397.11
41.00	399.45
42.00	411.93
43.00	401.01
44.00	410.37
45.00	410.37
46.00	393.99
47.00	370.58
48.00	372.15
49.00	388.53
50.00	376.05
51.00	375.27
52.00	406.47
53.00	427.54
54.00	419.74
55.00	381.51
56.00	371.36
57.00	387.75
58.00	394.77
59.00	399.45
60.00	392.43
61.00	394.77
62.00	396.33
63.00	416.62
64.00	408.81
65.00	406.47
66.00	408.03
67.00	407.25
68.00	390.09
69.00	357.32
70.00	386.19
71.00	392.43
72.00	393.21
73.00	357.32
74.00	365.12
75.00	390.87
76.00	376.05
77.00	379.17
78.00	384.63
79.00	399.45
80.00	408.81
81.00	372.93
82.00	396.33
83.00	404.91
84.00	401.79
85.00	376.83
86.00	362.00
87.00	400.23
88.00	419.74
89.00	401.79
90.00	401.01
91.00	401.01
92.00	418.18
93.00	398.67
94.00	383.85
95.00	383.07
96.00	383.85
97.00	372.93
98.00	381.51
99.00	380.73
100.00	394.77
101.00	368.24
102.00	357.32
103.00	386.97
104.00	404.91
105.00	420.52
106.00	367.46
107.00	376.83
108.00	365.90
109.00	391.65
110.00	390.87
111.00	402.57
112.00	389.31
113.00	384.63
114.00	355.76
115.00	358.88
116.00	359.66
117.00	395.55
118.00	390.09
119.00	381.51
120.00	358.88
121.00	383.85
122.00	393.99
123.00	417.40
124.00	389.31
125.00	363.56
126.00	326.89
127.00	369.02
128.00	376.05
129.00	421.30
130.00	381.51
131.00	395.55
132.00	368.24
133.00	377.61
134.00	369.80
135.00	377.61
136.00	386.19
137.00	401.79
138.00	391.65
139.00	397.11
140.00	380.73
141.00	377.61
142.00	362.00
143.00	341.72
144.00	333.14
145.00	318.31
146.00	332.36
147.00	358.88
148.00	393.99
149.00	414.27
150.00	410.37
151.00	406.47
152.00	408.81
153.00	399.45
154.00	406.47
155.00	390.87
156.00	393.99
157.00	400.23
158.00	401.01
159.00	423.64
160.00	404.91
161.00	419.74
162.00	411.93
163.00	416.62
164.00	411.93
165.00	390.87
166.00	386.19
167.00	375.27
168.00	388.53
169.00	379.17
170.00	369.80
171.00	365.90
172.00	390.87
173.00	416.62
174.00	400.23
175.00	389.31
176.00	386.19
177.00	413.49
178.00	394.77
179.00	372.93
180.00	359.66
181.00	342.50
182.00	361.22
183.00	369.02
184.00	423.64
185.00	432.22
186.00	431.44
187.00	411.15
188.00	375.27
189.00	358.10
190.00	341.72
191.00	373.71
192.00	380.73
193.00	376.83
194.00	359.66
195.00	365.12
196.00	391.65
197.00	391.65
198.00	385.41
199.00	381.51
200.00	398.67
201.00	418.96
202.00	424.42
203.00	428.32
204.00	423.64
205.00	404.91
206.00	393.21
207.00	384.63
208.00	408.81
209.00	425.20
210.00	451.72
211.00	422.08
212.00	412.71
213.00	383.07
214.00	393.99
215.00	390.87
216.00	423.64
217.00	439.24
218.00	429.10
219.00	422.08
220.00	403.35
221.00	417.40
222.00	417.40
223.00	418.96
224.00	421.30
225.00	405.69
226.00	393.99
227.00	379.17
228.00	383.85
229.00	386.97
230.00	390.09
231.00	359.66
232.00	376.83
233.00	380.73
234.00	387.75
235.00	391.65
236.00	381.51
237.00	399.45
238.00	387.75
239.00	404.91
240.00	387.75
241.00	408.81
242.00	412.71
243.00	419.74
244.00	393.99
245.00	381.51
246.00	391.65
247.00	397.11
248.00	386.19
249.00	375.27
250.00	372.15
251.00	399.45
252.00	393.99
253.00	383.07
254.00	357.32
255.00	392.43
256.00	422.86
257.00	429.88
258.00	418.96
259.00	404.91
260.00	401.79
261.00	386.19
262.00	385.41
263.00	390.87
264.00	392.43
265.00	411.93
266.00	403.35
267.00	411.93
268.00	398.67
269.00	395.55
270.00	375.27
271.00	343.28
272.00	367.46
273.00	358.10
274.00	392.43
275.00	377.61
276.00	404.91
277.00	390.87
278.00	398.67
279.00	410.37
280.00	424.42
281.00	433.78
282.00	441.58
283.00	438.46
284.00	422.08
285.00	393.21
286.00	397.11
287.00	392.43
288.00	385.41
289.00	376.05
290.00	392.43
291.00	397.89
292.00	398.67
293.00	356.54
294.00	362.00
295.00	345.62
296.00	396.33
297.00	393.21
298.00	408.81
299.00	372.93
300.00	357.32
301.00	342.50
302.00	338.60
303.00	340.16
304.00	346.40
305.00	350.30
306.00	363.56
307.00	387.75
308.00	418.96
309.00	410.37
310.00	393.21
311.00	384.63
312.00	415.06
313.00	408.03
314.00	410.37
315.00	408.81
316.00	432.22
317.00	409.59
318.00	379.95
319.00	359.66
320.00	373.71
321.00	377.61
322.00	391.65
323.00	386.97
324.00	389.31
325.00	373.71
326.00	362.00
327.00	365.90
328.00	356.54
329.00	376.05
330.00	388.53
331.00	422.86
332.00	405.69
333.00	386.19
334.00	358.88
335.00	383.85
336.00	397.89
337.00	417.40
338.00	399.45
339.00	382.29
340.00	389.31
341.00	396.33
342.00	418.18
343.00	414.27
344.00	425.98
345.00	418.96
346.00	411.15
347.00	403.35
348.00	390.87
349.00	390.87
350.00	393.99
351.00	393.21
352.00	393.21
353.00	393.99
354.00	412.71
355.00	417.40
356.00	418.96
357.00	427.54
358.00	422.08
359.00	410.37
360.00	398.67
361.00	373.71
362.00	375.27
363.00	382.29
364.00	398.67
365.00	376.05
366.00	373.71
367.00	364.34
368.00	418.18
369.00	402.57
370.00	428.32
371.00	413.49
372.00	436.90
373.00	440.80
374.00	415.06
375.00	386.19
376.00	366.68
377.00	379.17
378.00	388.53
379.00	393.99
380.00	377.61
381.00	372.15
382.00	374.49
383.00	371.36
384.00	386.97
385.00	363.56
386.00	384.63
387.00	358.10
388.00	369.02
389.00	354.98
390.00	354.20
391.00	362.78
392.00	372.93
393.00	397.11
394.00	381.51
395.00	380.73
396.00	393.99
397.00	409.59
398.00	406.47
399.00	397.11
400.00	410.37
401.00	423.64
402.00	413.49
403.00	395.55
404.00	398.67
405.00	415.06
406.00	408.03
407.00	404.13
408.00	404.91
409.00	418.18
410.00	405.69
411.00	370.58
412.00	377.61
413.00	399.45
414.00	433.78
415.00	411.15
416.00	401.79
417.00	371.36
418.00	390.87
419.00	377.61
420.00	377.61
421.00	372.15
422.00	390.09
423.00	424.42
424.00	415.06
425.00	406.47
426.00	376.83
427.00	385.41
428.00	392.43
429.00	408.03
430.00	426.76
431.00	415.84
432.00	401.01
433.00	396.33
434.00	407.25
435.00	424.42
436.00	418.18
437.00	401.79
438.00	399.45
439.00	403.35
440.00	424.42
441.00	415.84
442.00	404.13
443.00	411.93
444.00	418.96
445.00	424.42
446.00	401.79
447.00	405.69
448.00	386.19
449.00	392.43
450.00	402.57
451.00	416.62
452.00	412.71
453.00	424.42
454.00	409.59
455.00	414.27
456.00	397.11
457.00	394.77
458.00	396.33
459.00	376.83
460.00	386.97
461.00	348.74
462.00	340.16
463.00	322.99
464.00	339.38
465.00	374.49
466.00	392.43
467.00	401.01
468.00	386.19
469.00	386.97
470.00	398.67
471.00	383.85
472.00	392.43
473.00	379.95
474.00	395.55
475.00	384.63
476.00	398.67
477.00	418.18
478.00	433.78
479.00	438.46
480.00	411.15
481.00	402.57
482.00	389.31
483.00	381.51
484.00	380.73
485.00	380.73
486.00	390.87
487.00	379.17
488.00	377.61
489.00	391.65
490.00	386.97
491.00	378.39
492.00	378.39
493.00	390.09
494.00	404.91
495.00	404.91
496.00	401.79
497.00	393.21
498.00	372.93
499.00	404.91
500.00	398.67
501.00	397.89
502.00	369.02
503.00	372.15
504.00	376.83
505.00	398.67
506.00	400.23
507.00	404.91
508.00	391.65
509.00	405.69
510.00	403.35
511.00	421.30
512.00	440.02
513.00	425.98
514.00	418.96
515.00	346.40
516.00	369.02
517.00	380.73
518.00	418.18
519.00	384.63
520.00	348.74
521.00	338.60
522.00	364.34
523.00	383.07
524.00	413.49
525.00	433.00
526.00	415.84
527.00	404.13
528.00	401.79
529.00	430.66
530.00	436.90
531.00	408.03
532.00	365.90
533.00	329.24
534.00	344.06
535.00	362.78
536.00	401.01
537.00	425.98
538.00	429.10
539.00	409.59
540.00	397.11
541.00	391.65
542.00	397.11
543.00	395.55
544.00	405.69
545.00	388.53
546.00	367.46
547.00	351.08
548.00	368.24
549.00	380.73
550.00	385.41
551.00	386.97
552.00	382.29
553.00	386.97
554.00	394.77
555.00	411.93
556.00	408.81
557.00	411.93
558.00	404.91
559.00	410.37
560.00	400.23
561.00	370.58
562.00	383.85
563.00	373.71
564.00	388.53
565.00	374.49
566.00	393.99
567.00	408.03
568.00	397.89
569.00	399.45
570.00	420.52
571.00	431.44
572.00	422.86
573.00	386.97
574.00	418.96
575.00	410.37
576.00	408.81
577.00	352.64
578.00	354.98
579.00	371.36
580.00	404.91
581.00	397.89
582.00	401.79
583.00	393.99
584.00	416.62
585.00	423.64
586.00	414.27
587.00	404.13
588.00	391.65
589.00	393.21
590.00	383.85
591.00	373.71
592.00	381.51
593.00	379.95
594.00	358.88
595.00	332.36
596.00	343.28
597.00	374.49
598.00	386.97
599.00	412.71
600.00	426.76
601.00	421.30
602.00	377.61
603.00	332.36
604.00	346.40
605.00	385.41
606.00	431.44
607.00	423.64
608.00	391.65
609.00	344.06
610.00	323.77
611.00	339.38
612.00	373.71
613.00	383.85
614.00	365.12
615.00	355.76
616.00	383.85
617.00	378.39
618.00	369.80
619.00	358.88
620.00	392.43
621.00	393.99
622.00	390.87
623.00	387.75
624.00	397.89
625.00	427.54
626.00	431.44
627.00	425.20
628.00	402.57
629.00	396.33
630.00	401.01
631.00	418.96
632.00	418.96
633.00	442.36
634.00	479.81
635.00	538.32
636.00	565.63
637.00	575.77
638.00	571.09
639.00	592.16
640.00	550.03
641.00	526.62
642.00	459.53
643.00	430.66
644.00	393.21
645.00	391.65
646.00	381.51
647.00	384.63
648.00	372.15
649.00	393.21
650.00	405.69
651.00	423.64
652.00	384.63
653.00	378.39
654.00	439.24
655.00	494.63
656.00	485.27
657.00	404.91
658.00	362.78
659.00	386.19
660.00	407.25
661.00	427.54
662.00	409.59
663.00	386.97
664.00	378.39
665.00	354.98
666.00	351.08
667.00	349.52
668.00	367.46
669.00	391.65
670.00	411.93
671.00	427.54
672.00	417.40
673.00	417.40
674.00	414.27
675.00	411.93
676.00	407.25
677.00	400.23
678.00	411.15
679.00	426.76
680.00	452.50
681.00	460.31
682.00	449.38
683.00	402.57
684.00	377.61
685.00	366.68
686.00	375.27
687.00	361.22
688.00	358.88
689.00	366.68
690.00	390.09
691.00	389.31
692.00	388.53
693.00	361.22
694.00	379.95
695.00	386.19
696.00	423.64
697.00	414.27
698.00	411.93
699.00	397.11
700.00	395.55
701.00	413.49
702.00	439.24
703.00	426.76
704.00	415.84
705.00	393.21
706.00	403.35
707.00	393.21
708.00	393.99
709.00	366.68
710.00	373.71
711.00	370.58
712.00	390.87
713.00	386.19
714.00	408.03
715.00	408.81
716.00	410.37
717.00	410.37
718.00	464.21
719.00	478.25
720.00	478.25
721.00	438.46
722.00	450.16
723.00	461.87
724.00	459.53
725.00	436.90
726.00	407.25
727.00	401.01
728.00	369.80
729.00	385.41
730.00	383.85
731.00	411.15
732.00	398.67
733.00	408.81
734.00	383.85
735.00	375.27
736.00	380.73
737.00	403.35
738.00	412.71
739.00	386.97
740.00	397.11
741.00	398.67
742.00	404.13
743.00	414.27
744.00	400.23
745.00	404.91
746.00	374.49
747.00	379.17
748.00	367.46
749.00	400.23
750.00	419.74
751.00	461.09
752.00	422.08
753.00	418.96
754.00	377.61
755.00	398.67
756.00	402.57
757.00	424.42
758.00	420.52
759.00	429.10
760.00	416.62
761.00	411.93
762.00	370.58
763.00	380.73
764.00	393.21
765.00	421.30
766.00	443.92
767.00	463.43
768.00	472.79
769.00	443.92
770.00	414.27
771.00	406.47
772.00	425.20
773.00	442.36
774.00	419.74
775.00	431.44
776.00	414.27
777.00	437.68
778.00	401.01
779.00	400.23
780.00	394.77
781.00	396.33
782.00	405.69
783.00	490.73
784.00	498.53
785.00	478.25
786.00	383.85
787.00	365.90
788.00	372.15
789.00	374.49
790.00	397.11
791.00	401.01
792.00	383.85
793.00	382.29
794.00	391.65
795.00	397.89
796.00	397.89
797.00	369.80
798.00	393.99
799.00	417.40
800.00	433.78
801.00	437.68
802.00	425.20
803.00	435.34
804.00	401.01
805.00	359.66
806.00	358.88
807.00	366.68
808.00	397.89
809.00	406.47
810.00	422.08
811.00	397.11
812.00	367.46
813.00	357.32
814.00	355.76
815.00	362.78
816.00	376.05
817.00	397.89
818.00	425.20
819.00	414.27
820.00	411.15
821.00	418.18
822.00	425.98
823.00	411.15
824.00	364.34
825.00	353.42
826.00	376.83
827.00	383.85
828.00	403.35
829.00	420.52
830.00	440.02
831.00	401.79
832.00	361.22
833.00	354.98
834.00	380.73
835.00	390.87
836.00	384.63
837.00	395.55
838.00	412.71
839.00	421.30
840.00	423.64
841.00	409.59
842.00	402.57
843.00	385.41
844.00	408.03
845.00	411.15
846.00	396.33
847.00	380.73
848.00	381.51
849.00	415.06
850.00	408.03
851.00	411.93
852.00	383.85
853.00	397.89
854.00	401.79
855.00	407.25
856.00	379.17
857.00	389.31
858.00	380.73
859.00	417.40
860.00	390.09
861.00	421.30
862.00	408.81
863.00	414.27
864.00	404.91
865.00	411.15
866.00	402.57
867.00	376.83
868.00	359.66
869.00	368.24
870.00	390.87
871.00	401.79
872.00	401.79
873.00	401.79
874.00	387.75
875.00	387.75
876.00	391.65
877.00	390.09
878.00	412.71
879.00	415.06
880.00	450.94
881.00	436.12
882.00	438.46
883.00	429.88
884.00	437.68
885.00	429.10
886.00	424.42
887.00	425.98
888.00	422.08
889.00	423.64
890.00	426.76
891.00	422.86
892.00	395.55
893.00	383.07
894.00	376.83
895.00	401.79
896.00	383.07
897.00	392.43
898.00	375.27
899.00	403.35
900.00	406.47
901.00	421.30
902.00	424.42
903.00	440.02
904.00	447.04
905.00	437.68
906.00	400.23
907.00	359.66
908.00	362.78
909.00	724.01
910.00	770.04
911.00	760.67
912.00	401.79
913.00	375.27
914.00	386.97
915.00	399.45
916.00	419.74
917.00	430.66
918.00	436.90
919.00	436.90
920.00	416.62
921.00	420.52
922.00	394.77
923.00	401.01
924.00	401.01
925.00	402.57
926.00	406.47
927.00	407.25
928.00	409.59
929.00	426.76
930.00	443.92
931.00	426.76
932.00	397.11
933.00	358.10
934.00	369.02
935.00	365.12
936.00	367.46
937.00	386.97
938.00	397.89
939.00	410.37
940.00	383.85
941.00	405.69
942.00	419.74
943.00	433.00
944.00	398.67
945.00	383.07
946.00	400.23
947.00	401.01
948.00	393.21
949.00	360.44
950.00	377.61
951.00	376.05
952.00	392.43
953.00	352.64
954.00	364.34
955.00	386.97
956.00	415.84
957.00	415.84
958.00	390.87
959.00	408.81
960.00	415.84
961.00	429.88
962.00	429.10
963.00	409.59
964.00	421.30
965.00	391.65
966.00	399.45
967.00	375.27
968.00	391.65
969.00	372.15
970.00	374.49
971.00	359.66
972.00	351.86
973.00	343.28
974.00	365.90
975.00	390.87
976.00	388.53
977.00	345.62
978.00	359.66
979.00	362.00
980.00	393.21
981.00	387.75
982.00	409.59
983.00	412.71
984.00	411.93
985.00	397.11
986.00	390.09
987.00	369.02
988.00	384.63
989.00	391.65
990.00	411.93
991.00	387.75
992.00	382.29
993.00	404.91
994.00	422.08
995.00	433.00
996.00	417.40
997.00	387.75
998.00	354.20
999.00	339.38
1000.00	370.58
1001.00	384.63
1002.00	389.31
1003.00	367.46
1004.00	399.45
1005.00	425.98
1006.00	432.22
1007.00	424.42
1008.00	399.45
1009.00	421.30
1010.00	415.84
1011.00	416.62
1012.00	423.64
1013.00	422.86
1014.00	418.18
1015.00	393.99
1016.00	378.39
1017.00	371.36
1018.00	373.71
1019.00	376.05
1020.00	367.46
1021.00	372.15
1022.00	376.83
1023.00	399.45
1024.00	401.01
1025.00	391.65
1026.00	381.51
1027.00	380.73
1028.00	384.63
1029.00	375.27
1030.00	372.93
1031.00	375.27
1032.00	403.35
1033.00	426.76
1034.00	420.52
1035.00	408.81
1036.00	393.99
1037.00	402.57
1038.00	425.20
1039.00	404.91
1040.00	404.13
1041.00	393.99
1042.00	434.56
1043.00	434.56
1044.00	425.20
1045.00	441.58
1046.00	437.68
1047.00	453.28
1048.00	415.06
1049.00	427.54
1050.00	410.37
1051.00	415.84
1052.00	450.16
1053.00	450.94
1054.00	449.38
1055.00	384.63
1056.00	391.65
1057.00	367.46
1058.00	386.19
1059.00	368.24
1060.00	372.15
1061.00	379.95
1062.00	393.99
1063.00	408.81
1064.00	405.69
1065.00	398.67
1066.00	408.03
1067.00	420.52
1068.00	410.37
1069.00	388.53
1070.00	352.64
1071.00	381.51
1072.00	401.01
1073.00	425.20
1074.00	398.67
1075.00	384.63
1076.00	403.35
1077.00	430.66
1078.00	440.02
1079.00	433.00
1080.00	411.93
1081.00	396.33
1082.00	371.36
1083.00	374.49
1084.00	393.21
1085.00	399.45
1086.00	421.30
1087.00	414.27
1088.00	403.35
1089.00	393.21
1090.00	404.13
1091.00	399.45
1092.00	382.29
1093.00	360.44
1094.00	377.61
1095.00	390.09
1096.00	399.45
1097.00	404.91
1098.00	398.67
1099.00	393.21
1100.00	399.45
1101.00	402.57
1102.00	401.79
1103.00	399.45
1104.00	372.15
1105.00	359.66
1106.00	355.76
1107.00	355.76
1108.00	358.10
1109.00	348.74
1110.00	357.32
1111.00	357.32
1112.00	349.52
1113.00	390.87
1114.00	405.69
1115.00	431.44
1116.00	394.77
1117.00	397.11
1118.00	392.43
1119.00	418.18
1120.00	408.03
1121.00	401.79
1122.00	403.35
1123.00	408.81
1124.00	437.68
1125.00	413.49
1126.00	425.20
1127.00	387.75
1128.00	399.45
1129.00	390.87
1130.00	415.06
1131.00	396.33
1132.00	400.23
1133.00	402.57
1134.00	438.46
1135.00	411.93
1136.00	419.74
1137.00	430.66
1138.00	463.43
1139.00	423.64
1140.00	406.47
1141.00	382.29
1142.00	384.63
1143.00	376.83
1144.00	372.93
1145.00	390.09
1146.00	393.21
1147.00	405.69
1148.00	408.03
1149.00	393.21
1150.00	415.84
1151.00	404.13
1152.00	422.86
1153.00	413.49
1154.00	429.88
1155.00	429.88
1156.00	429.10
1157.00	421.30
1158.00	430.66
1159.00	415.84
1160.00	428.32
1161.00	429.10
1162.00	426.76
1163.00	412.71
1164.00	383.85
1165.00	397.11
1166.00	383.85
1167.00	414.27
1168.00	415.06
1169.00	428.32
1170.00	399.45
1171.00	402.57
1172.00	425.98
1173.00	420.52
1174.00	400.23
1175.00	401.79
1176.00	420.52
1177.00	452.50
1178.00	436.12
1179.00	433.00
1180.00	428.32
1181.00	443.92
1182.00	442.36
1183.00	462.65
1184.00	437.68
1185.00	436.12
1186.00	414.27
1187.00	401.79
1188.00	404.91
1189.00	389.31
1190.00	393.99
1191.00	402.57
1192.00	383.85
1193.00	427.54
1194.00	424.42
1195.00	407.25
1196.00	349.52
1197.00	327.67
1198.00	373.71
1199.00	416.62
1200.00	436.90
1201.00	427.54
1202.00	404.13
1203.00	390.09
1204.00	386.19
1205.00	390.09
1206.00	383.85
1207.00	368.24
1208.00	400.23
1209.00	418.96
1210.00	441.58
1211.00	415.84
1212.00	422.08
1213.00	420.52
1214.00	433.78
1215.00	436.12
1216.00	418.96
1217.00	387.75
1218.00	376.83
1219.00	388.53
1220.00	387.75
1221.00	348.74
1222.00	353.42
1223.00	377.61
1224.00	418.18
1225.00	447.04
1226.00	416.62
1227.00	384.63
1228.00	362.00
1229.00	362.78
1230.00	420.52
1231.00	420.52
1232.00	449.38
1233.00	419.74
1234.00	426.76
1235.00	421.30
1236.00	422.86
1237.00	408.81
1238.00	422.86
1239.00	415.06
1240.00	440.02
1241.00	429.88
1242.00	450.16
1243.00	447.04
1244.00	427.54
1245.00	398.67
1246.00	368.24
1247.00	383.07
1248.00	389.31
1249.00	403.35
1250.00	390.09
1251.00	392.43
1252.00	367.46
1253.00	360.44
1254.00	353.42
1255.00	354.98
1256.00	335.48
1257.00	326.11
1258.00	345.62
1259.00	368.24
1260.00	382.29
1261.00	379.17
1262.00	410.37
1263.00	432.22
1264.00	410.37
1265.00	395.55
1266.00	418.96
1267.00	440.80
1268.00	440.02
1269.00	387.75
1270.00	406.47
1271.00	386.19
1272.00	374.49
1273.00	361.22
1274.00	380.73
1275.00	416.62
1276.00	408.03
1277.00	409.59
1278.00	393.99
1279.00	390.87
1280.00	411.93
1281.00	436.90
1282.00	429.88
1283.00	404.91
1284.00	373.71
1285.00	397.11
1286.00	388.53
1287.00	405.69
1288.00	376.83
1289.00	373.71
1290.00	365.12
1291.00	364.34
1292.00	386.19
1293.00	372.93
1294.00	380.73
1295.00	365.12
1296.00	379.95
1297.00	401.01
1298.00	408.81
1299.00	412.71
1300.00	392.43
1301.00	378.39
1302.00	393.99
1303.00	391.65
1304.00	413.49
1305.00	383.07
1306.00	415.06
1307.00	401.79
1308.00	428.32
1309.00	415.84
1310.00	424.42
1311.00	398.67
1312.00	387.75
1313.00	379.17
1314.00	383.85
1315.00	378.39
1316.00	395.55
1317.00	402.57
1318.00	411.15
1319.00	381.51
1320.00	362.00
1321.00	348.74
1322.00	365.90
1323.00	346.40
1324.00	371.36
1325.00	405.69
1326.00	453.28
1327.00	456.40
1328.00	417.40
1329.00	412.71
1330.00	406.47
1331.00	436.90
1332.00	448.60
1333.00	460.31
1334.00	422.86
1335.00	401.79
1336.00	386.97
1337.00	411.93
1338.00	422.86
1339.00	430.66
1340.00	418.18
1341.00	422.86
1342.00	453.28
1343.00	450.94
1344.00	433.78
1345.00	397.11
1346.00	383.07
1347.00	389.31
1348.00	397.89
1349.00	405.69
1350.00	419.74
1351.00	399.45
1352.00	384.63
1353.00	351.86
1354.00	361.22
1355.00	383.07
1356.00	401.79
1357.00	409.59
1358.00	410.37
1359.00	404.13
1360.00	387.75
1361.00	362.00
1362.00	367.46
1363.00	394.77
1364.00	432.22
1365.00	430.66
