SpectraSuite Data File
++++++++++++++++++++++++++++++++++++
Date: Thu Nov 16 14:27:22 EST 2017
User: cheriyan
Dark Spectrum Present: No
Reference Spectrum Present: No
Number of Sampled Component Spectra: 1
Spectrometers: USB2+H05261
Integration Time (usec): 100000 (USB2+H05261)
Spectra Averaged: 1 (USB2+H05261)
Boxcar Smoothing: 1 (USB2+H05261)
Correct for Electrical Dark: No (USB2+H05261)
Strobe/Lamp Enabled: No (USB2+H05261)
Correct for Detector Non-linearity: No (USB2+H05261)
Correct for Stray Light: No (USB2+H05261)
Number of Pixels in Processed Spectrum: 2048
>>>>>Begin Processed Spectral Data<<<<<
0.00	304.27
1.00	304.27
2.00	294.13
3.00	250.44
4.00	225.47
5.00	184.90
6.00	207.53
7.00	224.69
8.00	259.80
9.00	253.56
10.00	241.08
11.00	233.27
12.00	228.59
13.00	203.63
14.00	212.21
15.00	223.91
16.00	244.20
17.00	212.99
18.00	221.57
19.00	227.03
20.00	257.46
21.00	262.14
22.00	273.84
23.00	308.17
24.00	287.89
25.00	316.75
26.00	302.71
27.00	358.88
28.00	347.18
29.00	347.96
30.00	344.06
31.00	334.70
32.00	354.20
33.00	341.72
34.00	399.45
35.00	406.47
36.00	418.18
37.00	386.97
38.00	382.29
39.00	369.02
40.00	385.41
41.00	395.55
42.00	412.71
43.00	417.40
44.00	403.35
45.00	407.25
46.00	384.63
47.00	398.67
48.00	385.41
49.00	378.39
50.00	376.05
51.00	386.19
52.00	420.52
53.00	425.98
54.00	425.98
55.00	403.35
56.00	378.39
57.00	371.36
58.00	375.27
59.00	373.71
60.00	382.29
61.00	367.46
62.00	374.49
63.00	384.63
64.00	379.95
65.00	391.65
66.00	390.87
67.00	399.45
68.00	399.45
69.00	381.51
70.00	397.11
71.00	402.57
72.00	388.53
73.00	365.12
74.00	366.68
75.00	344.84
76.00	354.98
77.00	351.86
78.00	394.77
79.00	378.39
80.00	367.46
81.00	363.56
82.00	383.85
83.00	379.17
84.00	385.41
85.00	386.19
86.00	413.49
87.00	403.35
88.00	401.79
89.00	373.71
90.00	397.11
91.00	414.27
92.00	421.30
93.00	386.97
94.00	385.41
95.00	390.09
96.00	436.12
97.00	434.56
98.00	423.64
99.00	386.97
100.00	364.34
101.00	352.64
102.00	350.30
103.00	363.56
104.00	389.31
105.00	397.89
106.00	376.05
107.00	359.66
108.00	351.86
109.00	378.39
110.00	376.05
111.00	383.07
112.00	393.21
113.00	407.25
114.00	412.71
115.00	379.95
116.00	379.17
117.00	381.51
118.00	396.33
119.00	383.07
120.00	393.99
121.00	376.83
122.00	390.09
123.00	393.99
124.00	422.08
125.00	442.36
126.00	407.25
127.00	379.17
128.00	356.54
129.00	374.49
130.00	379.95
131.00	373.71
132.00	363.56
133.00	364.34
134.00	373.71
135.00	415.06
136.00	442.36
137.00	433.00
138.00	382.29
139.00	385.41
140.00	393.21
141.00	393.21
142.00	372.93
143.00	370.58
144.00	379.95
145.00	372.15
146.00	365.12
147.00	384.63
148.00	400.23
149.00	425.20
150.00	429.10
151.00	425.98
152.00	425.98
153.00	421.30
154.00	435.34
155.00	423.64
156.00	405.69
157.00	400.23
158.00	379.17
159.00	395.55
160.00	376.83
161.00	396.33
162.00	390.87
163.00	386.97
164.00	381.51
165.00	379.17
166.00	391.65
167.00	380.73
168.00	363.56
169.00	351.08
170.00	346.40
171.00	388.53
172.00	404.13
173.00	436.90
174.00	409.59
175.00	412.71
176.00	411.93
177.00	420.52
178.00	399.45
179.00	383.07
180.00	375.27
181.00	359.66
182.00	364.34
183.00	379.95
184.00	384.63
185.00	369.80
186.00	358.10
187.00	397.11
188.00	418.96
189.00	409.59
190.00	384.63
191.00	390.87
192.00	407.25
193.00	414.27
194.00	398.67
195.00	370.58
196.00	351.08
197.00	338.60
198.00	365.12
199.00	399.45
200.00	415.84
201.00	422.08
202.00	414.27
203.00	407.25
204.00	372.15
205.00	378.39
206.00	393.21
207.00	433.00
208.00	409.59
209.00	404.13
210.00	402.57
211.00	398.67
212.00	408.03
213.00	404.13
214.00	399.45
215.00	391.65
216.00	380.73
217.00	388.53
218.00	403.35
219.00	397.11
220.00	409.59
221.00	403.35
222.00	410.37
223.00	425.20
224.00	408.81
225.00	410.37
226.00	406.47
227.00	404.91
228.00	402.57
229.00	393.99
230.00	417.40
231.00	407.25
232.00	394.77
233.00	358.88
234.00	376.83
235.00	392.43
236.00	428.32
237.00	408.81
238.00	406.47
239.00	359.66
240.00	359.66
241.00	398.67
242.00	412.71
243.00	420.52
244.00	394.77
245.00	397.11
246.00	384.63
247.00	375.27
248.00	393.21
249.00	391.65
250.00	354.20
251.00	333.92
252.00	322.21
253.00	343.28
254.00	344.84
255.00	380.73
256.00	404.13
257.00	437.68
258.00	447.82
259.00	437.68
260.00	390.87
261.00	366.68
262.00	362.78
263.00	392.43
264.00	407.25
265.00	402.57
266.00	427.54
267.00	441.58
268.00	450.94
269.00	388.53
270.00	340.16
271.00	346.40
272.00	386.19
273.00	415.84
274.00	401.01
275.00	415.84
276.00	419.74
277.00	429.10
278.00	415.84
279.00	409.59
280.00	428.32
281.00	427.54
282.00	429.88
283.00	414.27
284.00	393.21
285.00	405.69
286.00	427.54
287.00	444.70
288.00	435.34
289.00	398.67
290.00	387.75
291.00	394.77
292.00	376.83
293.00	404.91
294.00	385.41
295.00	386.97
296.00	357.32
297.00	350.30
298.00	382.29
299.00	383.07
300.00	391.65
301.00	388.53
302.00	378.39
303.00	391.65
304.00	390.09
305.00	427.54
306.00	434.56
307.00	401.01
308.00	371.36
309.00	347.96
310.00	347.96
311.00	386.97
312.00	381.51
313.00	391.65
314.00	365.12
315.00	378.39
316.00	401.79
317.00	401.01
318.00	397.89
319.00	404.13
320.00	372.93
321.00	364.34
322.00	337.82
323.00	351.08
324.00	380.73
325.00	381.51
326.00	397.89
327.00	387.75
328.00	431.44
329.00	440.80
330.00	423.64
331.00	397.89
332.00	376.83
333.00	391.65
334.00	365.12
335.00	354.98
336.00	333.14
337.00	354.98
338.00	382.29
339.00	396.33
340.00	397.11
341.00	401.01
342.00	423.64
343.00	419.74
344.00	442.36
345.00	425.98
346.00	445.48
347.00	419.74
348.00	416.62
349.00	408.81
350.00	419.74
351.00	414.27
352.00	433.00
353.00	442.36
354.00	440.02
355.00	409.59
356.00	390.09
357.00	394.77
358.00	409.59
359.00	413.49
360.00	411.93
361.00	440.02
362.00	443.14
363.00	454.84
364.00	426.76
365.00	412.71
366.00	398.67
367.00	390.87
368.00	402.57
369.00	418.96
370.00	430.66
371.00	435.34
372.00	425.98
373.00	400.23
374.00	376.05
375.00	384.63
376.00	395.55
377.00	394.77
378.00	383.85
379.00	363.56
380.00	383.85
381.00	381.51
382.00	393.21
383.00	386.97
384.00	382.29
385.00	391.65
386.00	384.63
387.00	380.73
388.00	406.47
389.00	436.12
390.00	454.84
391.00	442.36
392.00	416.62
393.00	426.76
394.00	432.22
395.00	449.38
396.00	434.56
397.00	422.08
398.00	384.63
399.00	372.15
400.00	372.15
401.00	369.02
402.00	365.12
403.00	363.56
404.00	364.34
405.00	386.97
406.00	402.57
407.00	425.98
408.00	399.45
409.00	368.24
410.00	353.42
411.00	353.42
412.00	365.12
413.00	385.41
414.00	410.37
415.00	416.62
416.00	395.55
417.00	371.36
418.00	348.74
419.00	351.08
420.00	378.39
421.00	393.99
422.00	411.93
423.00	400.23
424.00	404.13
425.00	413.49
426.00	409.59
427.00	391.65
428.00	371.36
429.00	372.93
430.00	383.07
431.00	360.44
432.00	368.24
433.00	365.12
434.00	402.57
435.00	411.15
436.00	412.71
437.00	401.79
438.00	373.71
439.00	397.11
440.00	403.35
441.00	431.44
442.00	423.64
443.00	397.89
444.00	390.09
445.00	386.19
446.00	399.45
447.00	390.87
448.00	393.21
449.00	397.11
450.00	386.19
451.00	397.11
452.00	414.27
453.00	454.84
454.00	433.00
455.00	420.52
456.00	386.19
457.00	380.73
458.00	353.42
459.00	370.58
460.00	383.85
461.00	407.25
462.00	389.31
463.00	365.12
464.00	342.50
465.00	360.44
466.00	384.63
467.00	416.62
468.00	421.30
469.00	418.96
470.00	419.74
471.00	379.17
472.00	379.95
473.00	375.27
474.00	400.23
475.00	401.01
476.00	390.87
477.00	390.09
478.00	377.61
479.00	365.12
480.00	365.12
481.00	363.56
482.00	387.75
483.00	400.23
484.00	418.96
485.00	419.74
486.00	435.34
487.00	436.90
488.00	432.22
489.00	435.34
490.00	429.88
491.00	432.22
492.00	433.00
493.00	415.06
494.00	447.04
495.00	428.32
496.00	419.74
497.00	413.49
498.00	409.59
499.00	431.44
500.00	415.06
501.00	423.64
502.00	430.66
503.00	415.84
504.00	411.93
505.00	399.45
506.00	428.32
507.00	415.06
508.00	454.84
509.00	449.38
510.00	461.87
511.00	443.92
512.00	424.42
513.00	438.46
514.00	433.78
515.00	440.80
516.00	421.30
517.00	420.52
518.00	408.81
519.00	411.15
520.00	420.52
521.00	421.30
522.00	432.22
523.00	407.25
524.00	429.10
525.00	420.52
526.00	445.48
527.00	436.90
528.00	410.37
529.00	380.73
530.00	397.89
531.00	416.62
532.00	436.90
533.00	429.10
534.00	433.78
535.00	428.32
536.00	417.40
537.00	433.78
538.00	460.31
539.00	469.67
540.00	437.68
541.00	415.84
542.00	386.19
543.00	408.81
544.00	396.33
545.00	402.57
546.00	413.49
547.00	400.23
548.00	413.49
549.00	371.36
550.00	417.40
551.00	425.20
552.00	434.56
553.00	405.69
554.00	396.33
555.00	429.10
556.00	435.34
557.00	420.52
558.00	389.31
559.00	378.39
560.00	376.05
561.00	401.79
562.00	389.31
563.00	401.79
564.00	386.19
565.00	382.29
566.00	396.33
567.00	407.25
568.00	411.93
569.00	382.29
570.00	369.02
571.00	390.09
572.00	424.42
573.00	425.98
574.00	438.46
575.00	404.91
576.00	386.97
577.00	339.38
578.00	362.78
579.00	372.93
580.00	398.67
581.00	405.69
582.00	415.84
583.00	427.54
584.00	419.74
585.00	442.36
586.00	426.76
587.00	411.15
588.00	403.35
589.00	435.34
590.00	440.80
591.00	418.96
592.00	393.99
593.00	392.43
594.00	407.25
595.00	400.23
596.00	393.99
597.00	377.61
598.00	384.63
599.00	379.95
600.00	395.55
601.00	397.89
602.00	417.40
603.00	402.57
604.00	400.23
605.00	397.11
606.00	408.03
607.00	393.99
608.00	396.33
609.00	381.51
610.00	399.45
611.00	393.99
612.00	423.64
613.00	421.30
614.00	422.08
615.00	404.91
616.00	402.57
617.00	397.11
618.00	376.83
619.00	375.27
620.00	347.18
621.00	359.66
622.00	362.00
623.00	390.09
624.00	390.09
625.00	402.57
626.00	422.86
627.00	421.30
628.00	408.03
629.00	422.86
630.00	436.12
631.00	439.24
632.00	406.47
633.00	408.03
634.00	463.43
635.00	522.72
636.00	614.78
637.00	659.25
638.00	682.66
639.00	643.65
640.00	587.47
641.00	535.98
642.00	500.09
643.00	462.65
644.00	447.04
645.00	401.01
646.00	384.63
647.00	369.02
648.00	382.29
649.00	397.11
650.00	393.21
651.00	393.21
652.00	387.75
653.00	393.99
654.00	431.44
655.00	440.80
656.00	428.32
657.00	408.03
658.00	393.99
659.00	379.95
660.00	354.98
661.00	354.98
662.00	393.21
663.00	405.69
664.00	416.62
665.00	416.62
666.00	422.08
667.00	418.18
668.00	385.41
669.00	378.39
670.00	365.90
671.00	376.83
672.00	372.15
673.00	401.01
674.00	425.20
675.00	449.38
676.00	437.68
677.00	446.26
678.00	455.62
679.00	474.35
680.00	458.75
681.00	430.66
682.00	393.21
683.00	405.69
684.00	422.86
685.00	446.26
686.00	437.68
687.00	424.42
688.00	426.76
689.00	437.68
690.00	438.46
691.00	436.12
692.00	412.71
693.00	406.47
694.00	392.43
695.00	410.37
696.00	443.92
697.00	464.99
698.00	437.68
699.00	397.89
700.00	385.41
701.00	383.07
702.00	417.40
703.00	408.03
704.00	406.47
705.00	380.73
706.00	369.80
707.00	380.73
708.00	369.80
709.00	369.80
710.00	375.27
711.00	388.53
712.00	404.91
713.00	409.59
714.00	411.15
715.00	422.08
716.00	420.52
717.00	433.78
718.00	457.96
719.00	444.70
720.00	436.90
721.00	427.54
722.00	448.60
723.00	461.87
724.00	443.14
725.00	427.54
726.00	392.43
727.00	385.41
728.00	390.87
729.00	397.89
730.00	411.93
731.00	406.47
732.00	422.86
733.00	390.87
734.00	387.75
735.00	390.09
736.00	401.79
737.00	418.96
738.00	413.49
739.00	416.62
740.00	411.93
741.00	420.52
742.00	425.98
743.00	432.22
744.00	418.96
745.00	407.25
746.00	408.81
747.00	399.45
748.00	425.98
749.00	434.56
750.00	454.84
751.00	443.92
752.00	436.12
753.00	415.06
754.00	405.69
755.00	369.80
756.00	380.73
757.00	395.55
758.00	422.86
759.00	440.80
760.00	434.56
761.00	417.40
762.00	407.25
763.00	400.23
764.00	418.96
765.00	403.35
766.00	433.78
767.00	433.00
768.00	445.48
769.00	405.69
770.00	408.03
771.00	410.37
772.00	405.69
773.00	404.13
774.00	386.97
775.00	413.49
776.00	430.66
777.00	455.62
778.00	440.80
779.00	427.54
780.00	411.15
781.00	403.35
782.00	385.41
783.00	457.96
784.00	447.04
785.00	482.15
786.00	397.89
787.00	408.03
788.00	370.58
789.00	365.90
790.00	397.89
791.00	399.45
792.00	419.74
793.00	397.11
794.00	386.97
795.00	390.87
796.00	395.55
797.00	416.62
798.00	429.88
799.00	418.96
800.00	416.62
801.00	397.89
802.00	411.15
803.00	407.25
804.00	401.01
805.00	388.53
806.00	373.71
807.00	385.41
808.00	401.01
809.00	420.52
810.00	406.47
811.00	411.93
812.00	394.77
813.00	402.57
814.00	412.71
815.00	428.32
816.00	420.52
817.00	378.39
818.00	395.55
819.00	378.39
820.00	379.95
821.00	359.66
822.00	396.33
823.00	424.42
824.00	400.23
825.00	372.93
826.00	344.84
827.00	362.78
828.00	391.65
829.00	404.13
830.00	432.22
831.00	397.11
832.00	397.11
833.00	372.93
834.00	390.09
835.00	393.21
836.00	394.77
837.00	386.97
838.00	395.55
839.00	401.01
840.00	407.25
841.00	417.40
842.00	411.15
843.00	429.10
844.00	407.25
845.00	414.27
846.00	383.85
847.00	414.27
848.00	413.49
849.00	424.42
850.00	394.77
851.00	404.91
852.00	403.35
853.00	410.37
854.00	377.61
855.00	408.03
856.00	388.53
857.00	389.31
858.00	352.64
859.00	342.50
860.00	347.18
861.00	384.63
862.00	418.96
863.00	432.22
864.00	422.08
865.00	435.34
866.00	454.06
867.00	442.36
868.00	440.02
869.00	429.10
870.00	438.46
871.00	429.88
872.00	415.06
873.00	400.23
874.00	380.73
875.00	383.85
876.00	403.35
877.00	423.64
878.00	454.06
879.00	434.56
880.00	437.68
881.00	415.84
882.00	425.98
883.00	382.29
884.00	390.87
885.00	386.97
886.00	429.10
887.00	397.89
888.00	409.59
889.00	393.21
890.00	414.27
891.00	407.25
892.00	413.49
893.00	393.99
894.00	391.65
895.00	397.11
896.00	407.25
897.00	408.03
898.00	382.29
899.00	384.63
900.00	369.80
901.00	397.89
902.00	404.91
903.00	402.57
904.00	389.31
905.00	369.02
906.00	379.17
907.00	369.80
908.00	386.19
909.00	706.06
910.00	731.81
911.00	753.65
912.00	454.06
913.00	436.12
914.00	425.98
915.00	415.84
916.00	429.88
917.00	410.37
918.00	373.71
919.00	375.27
920.00	370.58
921.00	387.75
922.00	393.21
923.00	415.84
924.00	448.60
925.00	414.27
926.00	386.97
927.00	370.58
928.00	392.43
929.00	420.52
930.00	415.06
931.00	415.06
932.00	387.75
933.00	379.17
934.00	370.58
935.00	414.27
936.00	438.46
937.00	454.06
938.00	433.00
939.00	413.49
940.00	383.07
941.00	374.49
942.00	379.95
943.00	396.33
944.00	424.42
945.00	422.08
946.00	413.49
947.00	414.27
948.00	430.66
949.00	423.64
950.00	404.13
951.00	391.65
952.00	407.25
953.00	408.03
954.00	425.98
955.00	442.36
956.00	419.74
957.00	394.77
958.00	393.99
959.00	408.81
960.00	441.58
961.00	437.68
962.00	430.66
963.00	408.03
964.00	412.71
965.00	429.88
966.00	436.90
967.00	455.62
968.00	469.67
969.00	463.43
970.00	426.76
971.00	412.71
972.00	397.89
973.00	393.21
974.00	371.36
975.00	390.87
976.00	413.49
977.00	424.42
978.00	391.65
979.00	374.49
980.00	370.58
981.00	404.13
982.00	416.62
983.00	417.40
984.00	380.73
985.00	364.34
986.00	372.15
987.00	386.19
988.00	398.67
989.00	408.81
990.00	413.49
991.00	403.35
992.00	364.34
993.00	351.86
994.00	365.90
995.00	397.89
996.00	432.22
997.00	420.52
998.00	411.15
999.00	397.89
1000.00	402.57
1001.00	386.19
1002.00	377.61
1003.00	378.39
1004.00	395.55
1005.00	402.57
1006.00	431.44
1007.00	453.28
1008.00	443.14
1009.00	411.93
1010.00	400.23
1011.00	417.40
1012.00	446.26
1013.00	458.75
1014.00	458.75
1015.00	443.14
1016.00	440.02
1017.00	428.32
1018.00	433.78
1019.00	408.03
1020.00	389.31
1021.00	383.85
1022.00	398.67
1023.00	404.91
1024.00	402.57
1025.00	392.43
1026.00	414.27
1027.00	410.37
1028.00	410.37
1029.00	415.06
1030.00	409.59
1031.00	443.14
1032.00	439.24
1033.00	459.53
1034.00	409.59
1035.00	412.71
1036.00	398.67
1037.00	422.86
1038.00	415.84
1039.00	414.27
1040.00	408.03
1041.00	414.27
1042.00	400.23
1043.00	411.93
1044.00	396.33
1045.00	452.50
1046.00	457.18
1047.00	457.96
1048.00	418.18
1049.00	399.45
1050.00	407.25
1051.00	392.43
1052.00	399.45
1053.00	376.83
1054.00	378.39
1055.00	343.28
1056.00	361.22
1057.00	369.80
1058.00	414.27
1059.00	421.30
1060.00	419.74
1061.00	415.06
1062.00	411.15
1063.00	412.71
1064.00	414.27
1065.00	407.25
1066.00	398.67
1067.00	386.97
1068.00	383.85
1069.00	396.33
1070.00	385.41
1071.00	391.65
1072.00	364.34
1073.00	366.68
1074.00	365.12
1075.00	383.85
1076.00	398.67
1077.00	440.02
1078.00	415.06
1079.00	454.06
1080.00	398.67
1081.00	411.93
1082.00	376.05
1083.00	383.07
1084.00	370.58
1085.00	385.41
1086.00	436.12
1087.00	463.43
1088.00	416.62
1089.00	381.51
1090.00	377.61
1091.00	394.77
1092.00	390.87
1093.00	392.43
1094.00	364.34
1095.00	373.71
1096.00	349.52
1097.00	386.19
1098.00	387.75
1099.00	413.49
1100.00	407.25
1101.00	380.73
1102.00	394.77
1103.00	397.89
1104.00	399.45
1105.00	368.24
1106.00	349.52
1107.00	344.84
1108.00	363.56
1109.00	397.89
1110.00	379.95
1111.00	372.93
1112.00	347.18
1113.00	376.05
1114.00	358.10
1115.00	380.73
1116.00	399.45
1117.00	429.10
1118.00	440.02
1119.00	426.76
1120.00	436.12
1121.00	436.90
1122.00	470.45
1123.00	468.89
1124.00	450.16
1125.00	443.92
1126.00	436.90
1127.00	443.14
1128.00	420.52
1129.00	411.15
1130.00	409.59
1131.00	379.95
1132.00	379.95
1133.00	382.29
1134.00	414.27
1135.00	397.11
1136.00	412.71
1137.00	417.40
1138.00	438.46
1139.00	411.15
1140.00	404.13
1141.00	407.25
1142.00	393.99
1143.00	388.53
1144.00	383.07
1145.00	416.62
1146.00	429.10
1147.00	436.12
1148.00	416.62
1149.00	397.89
1150.00	404.91
1151.00	435.34
1152.00	454.06
1153.00	468.89
1154.00	431.44
1155.00	427.54
1156.00	396.33
1157.00	422.08
1158.00	425.98
1159.00	435.34
1160.00	455.62
1161.00	439.24
1162.00	436.12
1163.00	393.21
1164.00	425.98
1165.00	447.82
1166.00	493.07
1167.00	441.58
1168.00	397.11
1169.00	367.46
1170.00	406.47
1171.00	427.54
1172.00	439.24
1173.00	442.36
1174.00	443.92
1175.00	444.70
1176.00	447.82
1177.00	425.20
1178.00	428.32
1179.00	398.67
1180.00	408.03
1181.00	393.21
1182.00	403.35
1183.00	434.56
1184.00	455.62
1185.00	460.31
1186.00	433.00
1187.00	419.74
1188.00	424.42
1189.00	426.76
1190.00	408.03
1191.00	399.45
1192.00	398.67
1193.00	415.84
1194.00	416.62
1195.00	427.54
1196.00	439.24
1197.00	424.42
1198.00	424.42
1199.00	408.81
1200.00	425.98
1201.00	420.52
1202.00	425.20
1203.00	437.68
1204.00	443.14
1205.00	424.42
1206.00	408.81
1207.00	422.86
1208.00	437.68
1209.00	441.58
1210.00	417.40
1211.00	406.47
1212.00	404.13
1213.00	424.42
1214.00	429.10
1215.00	396.33
1216.00	389.31
1217.00	400.23
1218.00	438.46
1219.00	419.74
1220.00	399.45
1221.00	387.75
1222.00	371.36
1223.00	379.17
1224.00	384.63
1225.00	397.11
1226.00	393.21
1227.00	382.29
1228.00	412.71
1229.00	425.20
1230.00	425.20
1231.00	414.27
1232.00	415.84
1233.00	439.24
1234.00	452.50
1235.00	450.16
1236.00	461.09
1237.00	457.18
1238.00	460.31
1239.00	450.94
1240.00	433.00
1241.00	408.81
1242.00	393.21
1243.00	408.03
1244.00	431.44
1245.00	440.80
1246.00	433.00
1247.00	430.66
1248.00	429.88
1249.00	428.32
1250.00	407.25
1251.00	403.35
1252.00	415.84
1253.00	429.88
1254.00	425.20
1255.00	409.59
1256.00	394.77
1257.00	400.23
1258.00	394.77
1259.00	398.67
1260.00	376.05
1261.00	406.47
1262.00	422.08
1263.00	433.00
1264.00	415.06
1265.00	394.77
1266.00	392.43
1267.00	383.07
1268.00	411.93
1269.00	431.44
1270.00	448.60
1271.00	451.72
1272.00	451.72
1273.00	440.80
1274.00	436.12
1275.00	432.22
1276.00	411.93
1277.00	406.47
1278.00	425.20
1279.00	464.21
1280.00	448.60
1281.00	414.27
1282.00	401.79
1283.00	396.33
1284.00	415.84
1285.00	408.03
1286.00	412.71
1287.00	397.89
1288.00	409.59
1289.00	418.18
1290.00	422.86
1291.00	412.71
1292.00	434.56
1293.00	440.80
1294.00	420.52
1295.00	384.63
1296.00	381.51
1297.00	420.52
1298.00	422.86
1299.00	416.62
1300.00	411.93
1301.00	425.98
1302.00	424.42
1303.00	400.23
1304.00	393.21
1305.00	413.49
1306.00	443.14
1307.00	447.04
1308.00	457.96
1309.00	444.70
1310.00	464.21
1311.00	435.34
1312.00	426.76
1313.00	403.35
1314.00	431.44
1315.00	421.30
1316.00	420.52
1317.00	381.51
1318.00	378.39
1319.00	379.95
1320.00	379.17
1321.00	365.90
1322.00	351.86
1323.00	371.36
1324.00	406.47
1325.00	423.64
1326.00	437.68
1327.00	449.38
1328.00	461.09
1329.00	468.11
1330.00	475.91
1331.00	511.80
1332.00	479.81
1333.00	468.89
1334.00	443.92
1335.00	452.50
1336.00	444.70
1337.00	437.68
1338.00	440.02
1339.00	425.20
1340.00	407.25
1341.00	393.21
1342.00	424.42
1343.00	411.15
1344.00	415.06
1345.00	380.73
1346.00	402.57
1347.00	403.35
1348.00	418.18
1349.00	384.63
1350.00	366.68
1351.00	347.96
1352.00	372.93
1353.00	401.79
1354.00	386.19
1355.00	389.31
1356.00	389.31
1357.00	412.71
1358.00	436.90
1359.00	419.74
1360.00	436.90
1361.00	412.71
1362.00	415.84
1363.00	404.13
1364.00	415.84
1365.00	444.70
