SpectraSuite Data File
++++++++++++++++++++++++++++++++++++
Date: Thu Nov 16 14:27:21 EST 2017
User: cheriyan
Dark Spectrum Present: No
Reference Spectrum Present: No
Number of Sampled Component Spectra: 1
Spectrometers: USB2+H05261
Integration Time (usec): 100000 (USB2+H05261)
Spectra Averaged: 1 (USB2+H05261)
Boxcar Smoothing: 1 (USB2+H05261)
Correct for Electrical Dark: No (USB2+H05261)
Strobe/Lamp Enabled: No (USB2+H05261)
Correct for Detector Non-linearity: No (USB2+H05261)
Correct for Stray Light: No (USB2+H05261)
Number of Pixels in Processed Spectrum: 2048
>>>>>Begin Processed Spectral Data<<<<<
0.00	332.36
1.00	332.36
2.00	298.81
3.00	259.02
4.00	237.95
5.00	236.39
6.00	237.17
7.00	237.95
8.00	259.02
9.00	258.24
10.00	248.88
11.00	220.01
12.00	222.35
13.00	205.19
14.00	235.61
15.00	239.51
16.00	241.08
17.00	201.29
18.00	198.17
19.00	216.89
20.00	262.14
21.00	283.20
22.00	293.35
23.00	289.45
24.00	301.15
25.00	327.68
26.00	335.48
27.00	344.06
28.00	340.16
29.00	374.49
30.00	352.64
31.00	359.66
32.00	341.72
33.00	369.02
34.00	368.24
35.00	382.29
36.00	393.21
37.00	396.33
38.00	389.31
39.00	391.65
40.00	404.91
41.00	410.37
42.00	401.01
43.00	397.89
44.00	410.37
45.00	415.84
46.00	397.11
47.00	397.11
48.00	379.95
49.00	379.17
50.00	362.00
51.00	391.65
52.00	431.44
53.00	417.40
54.00	406.47
55.00	365.90
56.00	361.22
57.00	370.58
58.00	387.75
59.00	386.97
60.00	367.46
61.00	362.78
62.00	353.42
63.00	354.20
64.00	382.29
65.00	399.45
66.00	401.01
67.00	379.17
68.00	384.63
69.00	395.55
70.00	390.09
71.00	394.77
72.00	379.17
73.00	353.42
74.00	344.06
75.00	344.84
76.00	363.56
77.00	360.44
78.00	364.34
79.00	382.29
80.00	410.37
81.00	412.71
82.00	397.89
83.00	344.06
84.00	344.84
85.00	348.74
86.00	376.83
87.00	393.21
88.00	391.65
89.00	377.61
90.00	396.33
91.00	400.23
92.00	423.64
93.00	376.05
94.00	387.75
95.00	374.49
96.00	390.09
97.00	390.87
98.00	401.01
99.00	399.45
100.00	393.99
101.00	392.43
102.00	403.35
103.00	426.76
104.00	440.02
105.00	433.78
106.00	378.39
107.00	341.72
108.00	324.55
109.00	332.36
110.00	363.56
111.00	378.39
112.00	382.29
113.00	393.99
114.00	403.35
115.00	407.25
116.00	396.33
117.00	389.31
118.00	378.39
119.00	369.80
120.00	394.77
121.00	434.56
122.00	432.22
123.00	388.53
124.00	387.75
125.00	386.97
126.00	392.43
127.00	374.49
128.00	381.51
129.00	411.15
130.00	402.57
131.00	393.21
132.00	372.93
133.00	397.11
134.00	404.13
135.00	413.49
136.00	374.49
137.00	386.97
138.00	367.46
139.00	397.11
140.00	376.05
141.00	394.77
142.00	403.35
143.00	430.66
144.00	409.59
145.00	365.90
146.00	316.75
147.00	324.55
148.00	350.30
149.00	391.65
150.00	392.43
151.00	401.79
152.00	396.33
153.00	393.21
154.00	400.23
155.00	394.77
156.00	401.01
157.00	383.07
158.00	404.13
159.00	433.78
160.00	404.91
161.00	373.71
162.00	347.96
163.00	360.44
164.00	385.41
165.00	393.21
166.00	403.35
167.00	386.97
168.00	376.83
169.00	386.19
170.00	407.25
171.00	386.19
172.00	397.89
173.00	370.58
174.00	390.87
175.00	396.33
176.00	423.64
177.00	412.71
178.00	402.57
179.00	389.31
180.00	404.91
181.00	390.87
182.00	418.18
183.00	381.51
184.00	358.10
185.00	305.05
186.00	319.09
187.00	335.48
188.00	350.30
189.00	350.30
190.00	358.88
191.00	359.66
192.00	376.05
193.00	372.93
194.00	354.98
195.00	348.74
196.00	369.80
197.00	393.21
198.00	406.47
199.00	394.77
200.00	397.11
201.00	379.95
202.00	374.49
203.00	372.93
204.00	367.46
205.00	401.79
206.00	420.52
207.00	440.02
208.00	413.49
209.00	425.20
210.00	414.27
211.00	408.03
212.00	370.58
213.00	398.67
214.00	411.15
215.00	403.35
216.00	397.89
217.00	401.79
218.00	418.96
219.00	424.42
220.00	408.03
221.00	407.25
222.00	381.51
223.00	392.43
224.00	385.41
225.00	372.93
226.00	366.68
227.00	373.71
228.00	398.67
229.00	395.55
230.00	374.49
231.00	371.36
232.00	390.09
233.00	408.81
234.00	417.40
235.00	404.13
236.00	418.18
237.00	397.89
238.00	380.73
239.00	377.61
240.00	383.07
241.00	415.06
242.00	415.06
243.00	425.20
244.00	386.19
245.00	390.09
246.00	384.63
247.00	396.33
248.00	380.73
249.00	388.53
250.00	383.07
251.00	394.77
252.00	365.12
253.00	373.71
254.00	354.98
255.00	363.56
256.00	358.10
257.00	372.93
258.00	392.43
259.00	406.47
260.00	383.85
261.00	390.09
262.00	390.87
263.00	430.66
264.00	425.20
265.00	417.40
266.00	413.49
267.00	433.00
268.00	429.10
269.00	411.15
270.00	387.75
271.00	394.77
272.00	385.41
273.00	383.07
274.00	383.07
275.00	386.97
276.00	380.73
277.00	383.07
278.00	375.27
279.00	384.63
280.00	393.99
281.00	457.96
282.00	447.82
283.00	457.96
284.00	407.25
285.00	408.03
286.00	394.77
287.00	399.45
288.00	422.08
289.00	428.32
290.00	428.32
291.00	400.23
292.00	393.21
293.00	383.85
294.00	403.35
295.00	393.99
296.00	386.19
297.00	359.66
298.00	358.88
299.00	370.58
300.00	359.66
301.00	372.15
302.00	375.27
303.00	398.67
304.00	379.17
305.00	366.68
306.00	379.95
307.00	387.75
308.00	408.03
309.00	393.21
310.00	390.09
311.00	379.95
312.00	385.41
313.00	385.41
314.00	399.45
315.00	395.55
316.00	417.40
317.00	397.89
318.00	425.20
319.00	393.21
320.00	403.35
321.00	373.71
322.00	380.73
323.00	383.07
324.00	392.43
325.00	411.15
326.00	408.81
327.00	418.18
328.00	397.89
329.00	387.75
330.00	382.29
331.00	390.87
332.00	404.91
333.00	375.27
334.00	351.08
335.00	362.00
336.00	367.46
337.00	384.63
338.00	351.08
339.00	378.39
340.00	387.75
341.00	402.57
342.00	402.57
343.00	382.29
344.00	401.01
345.00	377.61
346.00	367.46
347.00	351.08
348.00	357.32
349.00	382.29
350.00	376.83
351.00	397.89
352.00	411.93
353.00	433.00
354.00	420.52
355.00	417.40
356.00	420.52
357.00	423.64
358.00	398.67
359.00	372.93
360.00	381.51
361.00	429.88
362.00	429.88
363.00	421.30
364.00	399.45
365.00	413.49
366.00	397.89
367.00	381.51
368.00	379.95
369.00	376.83
370.00	379.95
371.00	374.49
372.00	372.93
373.00	400.23
374.00	408.03
375.00	415.84
376.00	409.59
377.00	365.90
378.00	354.20
379.00	358.88
380.00	387.75
381.00	404.91
382.00	405.69
383.00	419.74
384.00	422.08
385.00	399.45
386.00	393.21
387.00	410.37
388.00	412.71
389.00	394.77
390.00	381.51
391.00	399.45
392.00	411.15
393.00	413.49
394.00	390.87
395.00	414.27
396.00	406.47
397.00	432.22
398.00	394.77
399.00	408.03
400.00	390.09
401.00	409.59
402.00	397.11
403.00	401.01
404.00	401.01
405.00	422.08
406.00	422.08
407.00	406.47
408.00	369.80
409.00	351.86
410.00	368.24
411.00	376.05
412.00	415.84
413.00	425.20
414.00	413.49
415.00	382.29
416.00	375.27
417.00	404.13
418.00	415.84
419.00	415.06
420.00	397.89
421.00	404.91
422.00	416.62
423.00	431.44
424.00	400.23
425.00	378.39
426.00	374.49
427.00	410.37
428.00	408.81
429.00	434.56
430.00	426.76
431.00	420.52
432.00	390.87
433.00	378.39
434.00	385.41
435.00	373.71
436.00	372.93
437.00	392.43
438.00	397.89
439.00	401.79
440.00	393.21
441.00	436.90
442.00	454.06
443.00	442.36
444.00	409.59
445.00	390.87
446.00	397.89
447.00	383.07
448.00	369.80
449.00	366.68
450.00	383.07
451.00	393.99
452.00	391.65
453.00	393.21
454.00	396.33
455.00	410.37
456.00	420.52
457.00	424.42
458.00	439.24
459.00	428.32
460.00	448.60
461.00	418.96
462.00	411.93
463.00	369.02
464.00	360.44
465.00	358.88
466.00	395.55
467.00	436.90
468.00	448.60
469.00	437.68
470.00	418.96
471.00	431.44
472.00	428.32
473.00	458.75
474.00	456.40
475.00	447.82
476.00	415.84
477.00	404.91
478.00	406.47
479.00	397.11
480.00	418.96
481.00	438.46
482.00	451.72
483.00	435.34
484.00	424.42
485.00	426.76
486.00	422.08
487.00	405.69
488.00	422.86
489.00	408.81
490.00	411.93
491.00	393.99
492.00	408.03
493.00	425.98
494.00	415.06
495.00	397.89
496.00	367.46
497.00	385.41
498.00	407.25
499.00	422.08
500.00	423.64
501.00	423.64
502.00	439.24
503.00	410.37
504.00	397.11
505.00	396.33
506.00	425.20
507.00	429.10
508.00	440.80
509.00	442.36
510.00	442.36
511.00	440.02
512.00	425.20
513.00	443.92
514.00	426.76
515.00	418.96
516.00	416.62
517.00	418.96
518.00	417.40
519.00	415.84
520.00	412.71
521.00	377.61
522.00	351.08
523.00	351.08
524.00	378.39
525.00	416.62
526.00	409.59
527.00	416.62
528.00	407.25
529.00	419.74
530.00	428.32
531.00	428.32
532.00	431.44
533.00	443.92
534.00	440.80
535.00	435.34
536.00	430.66
537.00	436.12
538.00	438.46
539.00	434.56
540.00	413.49
541.00	424.42
542.00	433.78
543.00	434.56
544.00	422.86
545.00	385.41
546.00	373.71
547.00	376.83
548.00	393.99
549.00	401.79
550.00	391.65
551.00	372.93
552.00	373.71
553.00	393.99
554.00	422.08
555.00	435.34
556.00	404.91
557.00	399.45
558.00	393.21
559.00	411.15
560.00	411.15
561.00	422.86
562.00	418.96
563.00	425.20
564.00	418.18
565.00	401.79
566.00	398.67
567.00	409.59
568.00	416.62
569.00	403.35
570.00	387.75
571.00	422.86
572.00	438.46
573.00	451.72
574.00	425.98
575.00	420.52
576.00	390.87
577.00	380.73
578.00	394.77
579.00	407.25
580.00	404.91
581.00	373.71
582.00	351.08
583.00	356.54
584.00	385.41
585.00	414.27
586.00	425.20
587.00	418.18
588.00	380.73
589.00	379.95
590.00	376.83
591.00	398.67
592.00	376.05
593.00	377.61
594.00	376.83
595.00	396.33
596.00	395.55
597.00	407.25
598.00	404.13
599.00	402.57
600.00	401.79
601.00	395.55
602.00	402.57
603.00	422.86
604.00	433.78
605.00	425.20
606.00	405.69
607.00	398.67
608.00	402.57
609.00	428.32
610.00	424.42
611.00	414.27
612.00	397.11
613.00	400.23
614.00	406.47
615.00	394.77
616.00	382.29
617.00	379.95
618.00	392.43
619.00	417.40
620.00	411.93
621.00	396.33
622.00	366.68
623.00	365.12
624.00	347.18
625.00	369.02
626.00	358.10
627.00	362.78
628.00	384.63
629.00	414.27
630.00	433.78
631.00	422.08
632.00	429.88
633.00	447.82
634.00	476.69
635.00	540.66
636.00	617.90
637.00	702.94
638.00	727.91
639.00	752.09
640.00	685.00
641.00	620.24
642.00	508.68
643.00	454.84
644.00	403.35
645.00	390.87
646.00	361.22
647.00	352.64
648.00	366.68
649.00	397.11
650.00	431.44
651.00	422.86
652.00	431.44
653.00	415.06
654.00	443.14
655.00	433.00
656.00	456.40
657.00	428.32
658.00	393.99
659.00	362.00
660.00	356.54
661.00	381.51
662.00	408.03
663.00	407.25
664.00	415.06
665.00	417.40
666.00	410.37
667.00	425.20
668.00	405.69
669.00	412.71
670.00	394.77
671.00	375.27
672.00	375.27
673.00	373.71
674.00	407.25
675.00	416.62
676.00	437.68
677.00	454.06
678.00	464.21
679.00	468.89
680.00	453.28
681.00	438.46
682.00	415.06
683.00	413.49
684.00	415.84
685.00	424.42
686.00	397.11
687.00	404.13
688.00	377.61
689.00	395.55
690.00	374.49
691.00	386.97
692.00	377.61
693.00	390.09
694.00	400.23
695.00	408.81
696.00	413.49
697.00	408.81
698.00	398.67
699.00	404.13
700.00	407.25
701.00	405.69
702.00	404.13
703.00	411.15
704.00	423.64
705.00	392.43
706.00	372.93
707.00	362.00
708.00	368.24
709.00	415.84
710.00	424.42
711.00	438.46
712.00	390.87
713.00	379.95
714.00	386.19
715.00	408.81
716.00	413.49
717.00	433.00
718.00	459.53
719.00	466.55
720.00	460.31
721.00	435.34
722.00	459.53
723.00	459.53
724.00	447.04
725.00	404.91
726.00	380.73
727.00	371.36
728.00	386.97
729.00	390.87
730.00	404.13
731.00	406.47
732.00	427.54
733.00	422.86
734.00	411.15
735.00	381.51
736.00	388.53
737.00	403.35
738.00	406.47
739.00	383.07
740.00	376.05
741.00	391.65
742.00	408.03
743.00	432.22
744.00	439.24
745.00	440.02
746.00	408.81
747.00	408.03
748.00	413.49
749.00	427.54
750.00	429.88
751.00	430.66
752.00	443.14
753.00	441.58
754.00	426.76
755.00	402.57
756.00	398.67
757.00	415.06
758.00	430.66
759.00	429.88
760.00	415.06
761.00	406.47
762.00	421.30
763.00	433.78
764.00	428.32
765.00	404.13
766.00	382.29
767.00	393.21
768.00	392.43
769.00	396.33
770.00	373.71
771.00	374.49
772.00	410.37
773.00	433.00
774.00	437.68
775.00	415.06
776.00	413.49
777.00	408.81
778.00	397.89
779.00	385.41
780.00	379.17
781.00	381.51
782.00	408.81
783.00	475.13
784.00	489.17
785.00	466.55
786.00	408.03
787.00	379.17
788.00	386.19
789.00	379.95
790.00	401.79
791.00	393.21
792.00	405.69
793.00	383.85
794.00	376.83
795.00	353.42
796.00	393.99
797.00	411.15
798.00	432.22
799.00	398.67
800.00	379.17
801.00	398.67
802.00	408.81
803.00	404.13
804.00	372.15
805.00	374.49
806.00	420.52
807.00	424.42
808.00	419.74
809.00	404.91
810.00	399.45
811.00	385.41
812.00	365.90
813.00	369.80
814.00	382.29
815.00	387.75
816.00	372.93
817.00	397.11
818.00	387.75
819.00	386.19
820.00	352.64
821.00	379.17
822.00	415.84
823.00	438.46
824.00	417.40
825.00	386.97
826.00	363.56
827.00	381.51
828.00	410.37
829.00	443.92
830.00	442.36
831.00	431.44
832.00	423.64
833.00	440.02
834.00	403.35
835.00	383.07
836.00	390.09
837.00	443.92
838.00	451.72
839.00	413.49
840.00	399.45
841.00	411.93
842.00	423.64
843.00	428.32
844.00	446.26
845.00	440.80
846.00	424.42
847.00	395.55
848.00	396.33
849.00	388.53
850.00	394.77
851.00	372.93
852.00	388.53
853.00	354.98
854.00	364.34
855.00	362.78
856.00	393.99
857.00	385.41
858.00	365.90
859.00	373.71
860.00	420.52
861.00	449.38
862.00	448.60
863.00	431.44
864.00	425.98
865.00	418.96
866.00	418.18
867.00	432.22
868.00	440.80
869.00	451.72
870.00	436.90
871.00	411.15
872.00	383.07
873.00	367.46
874.00	374.49
875.00	383.85
876.00	392.43
877.00	395.55
878.00	401.01
879.00	406.47
880.00	408.81
881.00	385.41
882.00	394.77
883.00	419.74
884.00	437.68
885.00	429.10
886.00	406.47
887.00	386.97
888.00	383.07
889.00	378.39
890.00	377.61
891.00	343.28
892.00	365.90
893.00	361.22
894.00	412.71
895.00	376.05
896.00	383.85
897.00	364.34
898.00	381.51
899.00	395.55
900.00	397.89
901.00	418.96
902.00	414.27
903.00	409.59
904.00	383.07
905.00	404.13
906.00	414.27
907.00	432.22
908.00	407.25
909.00	731.81
910.00	736.49
911.00	748.97
912.00	415.06
913.00	420.52
914.00	396.33
915.00	391.65
916.00	370.58
917.00	408.81
918.00	408.81
919.00	397.11
920.00	379.17
921.00	401.79
922.00	414.27
923.00	395.55
924.00	386.97
925.00	401.01
926.00	418.18
927.00	408.81
928.00	387.75
929.00	397.89
930.00	398.67
931.00	408.03
932.00	400.23
933.00	402.57
934.00	401.79
935.00	412.71
936.00	396.33
937.00	417.40
938.00	425.20
939.00	434.56
940.00	411.93
941.00	404.13
942.00	423.64
943.00	433.78
944.00	419.74
945.00	418.18
946.00	416.62
947.00	421.30
948.00	433.78
949.00	443.14
950.00	453.28
951.00	433.78
952.00	409.59
953.00	403.35
954.00	383.85
955.00	397.11
956.00	393.99
957.00	423.64
958.00	405.69
959.00	383.85
960.00	382.29
961.00	396.33
962.00	414.27
963.00	420.52
964.00	401.79
965.00	393.99
966.00	380.73
967.00	381.51
968.00	412.71
969.00	418.18
970.00	422.86
971.00	408.81
972.00	395.55
973.00	393.99
974.00	398.67
975.00	396.33
976.00	417.40
977.00	411.93
978.00	404.91
979.00	392.43
980.00	361.22
981.00	365.12
982.00	354.98
983.00	368.24
984.00	369.80
985.00	385.41
986.00	399.45
987.00	410.37
988.00	402.57
989.00	389.31
990.00	400.23
991.00	399.45
992.00	420.52
993.00	440.02
994.00	464.21
995.00	445.48
996.00	428.32
997.00	414.27
998.00	428.32
999.00	408.81
1000.00	399.45
1001.00	371.36
1002.00	377.61
1003.00	373.71
1004.00	401.01
1005.00	385.41
1006.00	401.79
1007.00	394.77
1008.00	414.27
1009.00	424.42
1010.00	450.16
1011.00	453.28
1012.00	427.54
1013.00	401.79
1014.00	374.49
1015.00	383.07
1016.00	397.11
1017.00	416.62
1018.00	411.15
1019.00	387.75
1020.00	377.61
1021.00	387.75
1022.00	415.84
1023.00	408.03
1024.00	382.29
1025.00	363.56
1026.00	369.02
1027.00	397.11
1028.00	401.79
1029.00	390.87
1030.00	398.67
1031.00	393.21
1032.00	415.84
1033.00	394.77
1034.00	371.36
1035.00	369.02
1036.00	369.80
1037.00	398.67
1038.00	408.81
1039.00	405.69
1040.00	394.77
1041.00	397.11
1042.00	401.79
1043.00	404.13
1044.00	401.01
1045.00	459.53
1046.00	472.01
1047.00	454.84
1048.00	401.79
1049.00	402.57
1050.00	396.33
1051.00	383.85
1052.00	372.93
1053.00	384.63
1054.00	410.37
1055.00	417.40
1056.00	431.44
1057.00	390.87
1058.00	383.85
1059.00	351.08
1060.00	374.49
1061.00	366.68
1062.00	375.27
1063.00	379.95
1064.00	401.01
1065.00	417.40
1066.00	411.93
1067.00	386.19
1068.00	386.97
1069.00	393.99
1070.00	402.57
1071.00	368.24
1072.00	366.68
1073.00	374.49
1074.00	404.13
1075.00	383.85
1076.00	396.33
1077.00	416.62
1078.00	439.24
1079.00	461.87
1080.00	434.56
1081.00	434.56
1082.00	397.11
1083.00	388.53
1084.00	398.67
1085.00	390.09
1086.00	418.96
1087.00	424.42
1088.00	425.20
1089.00	395.55
1090.00	381.51
1091.00	392.43
1092.00	404.13
1093.00	401.79
1094.00	424.42
1095.00	441.58
1096.00	452.50
1097.00	420.52
1098.00	402.57
1099.00	365.12
1100.00	397.89
1101.00	411.93
1102.00	443.92
1103.00	401.01
1104.00	377.61
1105.00	358.10
1106.00	397.89
1107.00	411.93
1108.00	430.66
1109.00	414.27
1110.00	412.71
1111.00	401.79
1112.00	417.40
1113.00	432.22
1114.00	440.80
1115.00	430.66
1116.00	424.42
1117.00	422.08
1118.00	434.56
1119.00	439.24
1120.00	431.44
1121.00	408.03
1122.00	424.42
1123.00	425.98
1124.00	443.14
1125.00	415.06
1126.00	435.34
1127.00	428.32
1128.00	418.96
1129.00	410.37
1130.00	412.71
1131.00	413.49
1132.00	418.96
1133.00	410.37
1134.00	438.46
1135.00	436.12
1136.00	433.78
1137.00	415.06
1138.00	406.47
1139.00	422.08
1140.00	436.12
1141.00	439.24
1142.00	422.08
1143.00	408.03
1144.00	408.03
1145.00	418.96
1146.00	433.00
1147.00	450.94
1148.00	474.35
1149.00	472.79
1150.00	456.40
1151.00	422.86
1152.00	432.22
1153.00	447.82
1154.00	472.01
1155.00	447.04
1156.00	433.00
1157.00	417.40
1158.00	435.34
1159.00	410.37
1160.00	404.13
1161.00	386.97
1162.00	378.39
1163.00	386.19
1164.00	401.01
1165.00	436.90
1166.00	443.14
1167.00	418.96
1168.00	418.18
1169.00	379.17
1170.00	389.31
1171.00	371.36
1172.00	404.13
1173.00	422.86
1174.00	433.78
1175.00	436.90
1176.00	423.64
1177.00	429.88
1178.00	431.44
1179.00	439.24
1180.00	447.04
1181.00	441.58
1182.00	452.50
1183.00	449.38
1184.00	457.18
1185.00	453.28
1186.00	447.82
1187.00	442.36
1188.00	425.98
1189.00	405.69
1190.00	378.39
1191.00	378.39
1192.00	365.12
1193.00	375.27
1194.00	378.39
1195.00	401.79
1196.00	398.67
1197.00	392.43
1198.00	399.45
1199.00	439.24
1200.00	454.06
1201.00	471.23
1202.00	450.16
1203.00	433.00
1204.00	421.30
1205.00	425.98
1206.00	438.46
1207.00	411.15
1208.00	404.91
1209.00	411.93
1210.00	457.96
1211.00	459.53
1212.00	469.67
1213.00	442.36
1214.00	416.62
1215.00	395.55
1216.00	395.55
1217.00	426.76
1218.00	403.35
1219.00	386.19
1220.00	365.12
1221.00	372.93
1222.00	398.67
1223.00	416.62
1224.00	428.32
1225.00	414.27
1226.00	401.79
1227.00	373.71
1228.00	401.79
1229.00	423.64
1230.00	427.54
1231.00	426.76
1232.00	430.66
1233.00	468.11
1234.00	451.72
1235.00	441.58
1236.00	441.58
1237.00	436.90
1238.00	442.36
1239.00	432.22
1240.00	450.94
1241.00	426.76
1242.00	440.80
1243.00	440.02
1244.00	442.36
1245.00	432.22
1246.00	417.40
1247.00	434.56
1248.00	425.20
1249.00	430.66
1250.00	440.02
1251.00	445.48
1252.00	437.68
1253.00	414.27
1254.00	401.01
1255.00	396.33
1256.00	392.43
1257.00	394.77
1258.00	377.61
1259.00	378.39
1260.00	399.45
1261.00	419.74
1262.00	424.42
1263.00	413.49
1264.00	430.66
1265.00	416.62
1266.00	433.78
1267.00	394.77
1268.00	432.22
1269.00	409.59
1270.00	436.12
1271.00	430.66
1272.00	434.56
1273.00	433.00
1274.00	419.74
1275.00	422.86
1276.00	418.18
1277.00	433.00
1278.00	436.12
1279.00	438.46
1280.00	418.18
1281.00	401.79
1282.00	404.13
1283.00	401.79
1284.00	415.84
1285.00	433.78
1286.00	430.66
1287.00	416.62
1288.00	414.27
1289.00	389.31
1290.00	419.74
1291.00	408.03
1292.00	439.24
1293.00	420.52
1294.00	429.10
1295.00	427.54
1296.00	453.28
1297.00	450.94
1298.00	445.48
1299.00	397.11
1300.00	388.53
1301.00	393.21
1302.00	432.22
1303.00	434.56
1304.00	436.12
1305.00	420.52
1306.00	442.36
1307.00	441.58
1308.00	432.22
1309.00	393.21
1310.00	385.41
1311.00	384.63
1312.00	404.13
1313.00	406.47
1314.00	412.71
1315.00	403.35
1316.00	389.31
1317.00	370.58
1318.00	361.22
1319.00	365.12
1320.00	387.75
1321.00	395.55
1322.00	422.08
1323.00	418.18
1324.00	415.84
1325.00	415.84
1326.00	413.49
1327.00	393.99
1328.00	403.35
1329.00	404.13
1330.00	429.10
1331.00	439.24
1332.00	460.31
1333.00	471.23
1334.00	423.64
1335.00	400.23
1336.00	400.23
1337.00	422.86
1338.00	446.26
1339.00	439.24
1340.00	411.15
1341.00	390.87
1342.00	369.02
1343.00	386.19
1344.00	388.53
1345.00	415.06
1346.00	411.93
1347.00	408.03
1348.00	386.19
1349.00	396.33
1350.00	415.84
1351.00	433.78
1352.00	407.25
1353.00	390.09
1354.00	381.51
1355.00	411.15
1356.00	438.46
1357.00	447.04
1358.00	457.18
1359.00	434.56
1360.00	415.06
1361.00	383.07
1362.00	372.15
1363.00	379.95
1364.00	401.01
1365.00	397.89
