SpectraSuite Data File
++++++++++++++++++++++++++++++++++++
Date: Thu Nov 16 14:27:22 EST 2017
User: cheriyan
Dark Spectrum Present: No
Reference Spectrum Present: No
Number of Sampled Component Spectra: 1
Spectrometers: USB2+H05261
Integration Time (usec): 100000 (USB2+H05261)
Spectra Averaged: 1 (USB2+H05261)
Boxcar Smoothing: 1 (USB2+H05261)
Correct for Electrical Dark: No (USB2+H05261)
Strobe/Lamp Enabled: No (USB2+H05261)
Correct for Detector Non-linearity: No (USB2+H05261)
Correct for Stray Light: No (USB2+H05261)
Number of Pixels in Processed Spectrum: 2048
>>>>>Begin Processed Spectral Data<<<<<
0.00	266.82
1.00	266.82
2.00	263.70
3.00	255.90
4.00	243.42
5.00	239.51
6.00	217.67
7.00	222.35
8.00	229.37
9.00	235.61
10.00	224.69
11.00	206.75
12.00	222.35
13.00	234.05
14.00	212.21
15.00	209.87
16.00	192.70
17.00	209.87
18.00	212.21
19.00	223.91
20.00	228.59
21.00	234.05
22.00	248.10
23.00	281.64
24.00	280.08
25.00	293.35
26.00	306.61
27.00	349.52
28.00	359.66
29.00	362.00
30.00	351.08
31.00	360.44
32.00	356.54
33.00	348.74
34.00	339.38
35.00	361.22
36.00	366.68
37.00	388.53
38.00	362.78
39.00	381.51
40.00	377.61
41.00	383.85
42.00	368.24
43.00	358.88
44.00	368.24
45.00	399.45
46.00	402.57
47.00	405.69
48.00	378.39
49.00	385.41
50.00	388.53
51.00	395.55
52.00	431.44
53.00	430.66
54.00	422.08
55.00	398.67
56.00	389.31
57.00	390.87
58.00	357.32
59.00	359.66
60.00	363.56
61.00	392.43
62.00	381.51
63.00	400.23
64.00	387.75
65.00	399.45
66.00	379.95
67.00	374.49
68.00	371.36
69.00	376.83
70.00	387.75
71.00	382.29
72.00	365.12
73.00	354.98
74.00	367.46
75.00	396.33
76.00	386.97
77.00	376.83
78.00	366.68
79.00	398.67
80.00	413.49
81.00	404.91
82.00	383.07
83.00	387.75
84.00	374.49
85.00	347.96
86.00	328.46
87.00	376.83
88.00	408.81
89.00	408.03
90.00	378.39
91.00	382.29
92.00	383.07
93.00	372.15
94.00	383.07
95.00	392.43
96.00	388.53
97.00	365.90
98.00	359.66
99.00	366.68
100.00	386.19
101.00	376.05
102.00	399.45
103.00	386.19
104.00	389.31
105.00	393.21
106.00	389.31
107.00	383.07
108.00	384.63
109.00	386.19
110.00	390.09
111.00	383.07
112.00	373.71
113.00	372.93
114.00	341.72
115.00	358.10
116.00	365.12
117.00	397.89
118.00	378.39
119.00	379.17
120.00	375.27
121.00	359.66
122.00	353.42
123.00	333.92
124.00	383.85
125.00	401.01
126.00	418.18
127.00	395.55
128.00	374.49
129.00	373.71
130.00	361.22
131.00	376.83
132.00	383.07
133.00	401.01
134.00	399.45
135.00	372.93
136.00	355.76
137.00	362.78
138.00	364.34
139.00	394.77
140.00	400.23
141.00	422.08
142.00	413.49
143.00	401.01
144.00	374.49
145.00	365.90
146.00	347.18
147.00	368.24
148.00	372.93
149.00	387.75
150.00	369.80
151.00	362.78
152.00	367.46
153.00	374.49
154.00	379.95
155.00	383.85
156.00	393.99
157.00	393.99
158.00	403.35
159.00	397.11
160.00	404.91
161.00	386.19
162.00	411.93
163.00	418.18
164.00	429.10
165.00	422.86
166.00	415.06
167.00	415.06
168.00	393.21
169.00	377.61
170.00	378.39
171.00	383.07
172.00	397.89
173.00	389.31
174.00	411.15
175.00	415.06
176.00	413.49
177.00	372.15
178.00	372.15
179.00	396.33
180.00	424.42
181.00	431.44
182.00	415.84
183.00	386.19
184.00	359.66
185.00	353.42
186.00	358.10
187.00	375.27
188.00	373.71
189.00	399.45
190.00	384.63
191.00	399.45
192.00	373.71
193.00	370.58
194.00	362.78
195.00	370.58
196.00	372.15
197.00	387.75
198.00	396.33
199.00	422.08
200.00	394.77
201.00	398.67
202.00	383.07
203.00	381.51
204.00	362.00
205.00	375.27
206.00	395.55
207.00	422.08
208.00	427.54
209.00	431.44
210.00	459.53
211.00	450.94
212.00	437.68
213.00	391.65
214.00	370.58
215.00	372.15
216.00	387.75
217.00	404.91
218.00	437.68
219.00	439.24
220.00	417.40
221.00	394.77
222.00	383.85
223.00	402.57
224.00	392.43
225.00	372.15
226.00	368.24
227.00	372.93
228.00	398.67
229.00	379.17
230.00	370.58
231.00	358.88
232.00	399.45
233.00	409.59
234.00	411.93
235.00	393.99
236.00	389.31
237.00	387.75
238.00	388.53
239.00	391.65
240.00	414.27
241.00	419.74
242.00	443.14
243.00	430.66
244.00	428.32
245.00	397.11
246.00	376.05
247.00	390.09
248.00	374.49
249.00	374.49
250.00	329.24
251.00	314.41
252.00	338.60
253.00	386.97
254.00	431.44
255.00	425.98
256.00	403.35
257.00	397.89
258.00	396.33
259.00	394.77
260.00	376.05
261.00	375.27
262.00	388.53
263.00	411.15
264.00	412.71
265.00	429.88
266.00	405.69
267.00	404.13
268.00	375.27
269.00	390.87
270.00	408.03
271.00	401.01
272.00	411.93
273.00	397.89
274.00	417.40
275.00	410.37
276.00	419.74
277.00	412.71
278.00	417.40
279.00	396.33
280.00	408.03
281.00	381.51
282.00	398.67
283.00	392.43
284.00	404.13
285.00	410.37
286.00	404.91
287.00	418.18
288.00	401.01
289.00	409.59
290.00	413.49
291.00	426.76
292.00	399.45
293.00	406.47
294.00	384.63
295.00	387.75
296.00	374.49
297.00	400.23
298.00	414.27
299.00	418.18
300.00	393.99
301.00	397.11
302.00	378.39
303.00	385.41
304.00	375.27
305.00	390.09
306.00	411.15
307.00	431.44
308.00	415.84
309.00	421.30
310.00	409.59
311.00	422.86
312.00	403.35
313.00	393.99
314.00	392.43
315.00	396.33
316.00	402.57
317.00	415.06
318.00	403.35
319.00	393.99
320.00	354.20
321.00	367.46
322.00	372.15
323.00	386.19
324.00	372.93
325.00	385.41
326.00	397.11
327.00	410.37
328.00	393.21
329.00	386.19
330.00	362.78
331.00	367.46
332.00	387.75
333.00	402.57
334.00	417.40
335.00	397.11
336.00	388.53
337.00	381.51
338.00	389.31
339.00	418.96
340.00	424.42
341.00	457.18
342.00	432.22
343.00	408.03
344.00	397.11
345.00	393.99
346.00	426.76
347.00	429.88
348.00	444.70
349.00	432.22
350.00	411.93
351.00	424.42
352.00	443.92
353.00	467.33
354.00	446.26
355.00	411.93
356.00	397.11
357.00	417.40
358.00	436.12
359.00	430.66
360.00	424.42
361.00	421.30
362.00	417.40
363.00	413.49
364.00	405.69
365.00	397.89
366.00	381.51
367.00	383.07
368.00	400.23
369.00	424.42
370.00	444.70
371.00	447.04
372.00	424.42
373.00	424.42
374.00	426.76
375.00	422.08
376.00	401.79
377.00	388.53
378.00	383.85
379.00	365.12
380.00	354.20
381.00	384.63
382.00	416.62
383.00	415.06
384.00	417.40
385.00	391.65
386.00	393.99
387.00	379.17
388.00	404.91
389.00	399.45
390.00	394.77
391.00	362.78
392.00	365.12
393.00	347.18
394.00	373.71
395.00	376.83
396.00	423.64
397.00	443.92
398.00	447.04
399.00	406.47
400.00	358.10
401.00	364.34
402.00	372.93
403.00	395.55
404.00	401.79
405.00	428.32
406.00	423.64
407.00	422.86
408.00	421.30
409.00	417.40
410.00	400.23
411.00	373.71
412.00	397.89
413.00	418.18
414.00	429.88
415.00	418.18
416.00	430.66
417.00	413.49
418.00	417.40
419.00	394.77
420.00	416.62
421.00	384.63
422.00	367.46
423.00	370.58
424.00	395.55
425.00	414.27
426.00	404.13
427.00	411.93
428.00	432.22
429.00	454.84
430.00	461.09
431.00	443.92
432.00	397.89
433.00	374.49
434.00	371.36
435.00	385.41
436.00	394.77
437.00	390.87
438.00	391.65
439.00	371.36
440.00	378.39
441.00	401.79
442.00	453.28
443.00	445.48
444.00	458.75
445.00	434.56
446.00	440.80
447.00	404.91
448.00	377.61
449.00	387.75
450.00	393.21
451.00	412.71
452.00	398.67
453.00	410.37
454.00	415.84
455.00	417.40
456.00	406.47
457.00	379.17
458.00	397.11
459.00	411.15
460.00	419.74
461.00	393.99
462.00	358.88
463.00	380.73
464.00	386.97
465.00	422.08
466.00	410.37
467.00	406.47
468.00	412.71
469.00	432.22
470.00	452.50
471.00	433.78
472.00	428.32
473.00	407.25
474.00	408.03
475.00	407.25
476.00	421.30
477.00	403.35
478.00	399.45
479.00	406.47
480.00	423.64
481.00	430.66
482.00	433.00
483.00	426.76
484.00	425.98
485.00	403.35
486.00	429.10
487.00	389.31
488.00	400.23
489.00	393.99
490.00	425.98
491.00	419.74
492.00	418.96
493.00	427.54
494.00	433.78
495.00	425.20
496.00	413.49
497.00	421.30
498.00	427.54
499.00	415.84
500.00	425.20
501.00	402.57
502.00	418.96
503.00	392.43
504.00	408.03
505.00	403.35
506.00	416.62
507.00	411.15
508.00	417.40
509.00	418.18
510.00	445.48
511.00	437.68
512.00	433.00
513.00	423.64
514.00	427.54
515.00	414.27
516.00	401.01
517.00	408.81
518.00	408.81
519.00	414.27
520.00	397.89
521.00	404.91
522.00	411.93
523.00	426.76
524.00	437.68
525.00	449.38
526.00	429.10
527.00	428.32
528.00	391.65
529.00	385.41
530.00	379.95
531.00	393.21
532.00	418.18
533.00	416.62
534.00	432.22
535.00	425.98
536.00	436.12
537.00	451.72
538.00	439.24
539.00	426.76
540.00	420.52
541.00	450.94
542.00	456.40
543.00	430.66
544.00	401.01
545.00	392.43
546.00	362.00
547.00	386.97
548.00	377.61
549.00	395.55
550.00	381.51
551.00	398.67
552.00	399.45
553.00	415.06
554.00	404.13
555.00	425.20
556.00	432.22
557.00	444.70
558.00	435.34
559.00	404.13
560.00	414.27
561.00	421.30
562.00	406.47
563.00	364.34
564.00	339.38
565.00	347.18
566.00	394.77
567.00	418.18
568.00	429.88
569.00	403.35
570.00	400.23
571.00	416.62
572.00	435.34
573.00	433.78
574.00	437.68
575.00	423.64
576.00	437.68
577.00	418.96
578.00	413.49
579.00	411.93
580.00	402.57
581.00	385.41
582.00	370.58
583.00	387.75
584.00	398.67
585.00	427.54
586.00	422.08
587.00	434.56
588.00	386.19
589.00	404.91
590.00	436.90
591.00	482.15
592.00	473.57
593.00	448.60
594.00	430.66
595.00	421.30
596.00	413.49
597.00	404.13
598.00	415.84
599.00	414.27
600.00	464.21
601.00	466.55
602.00	467.33
603.00	394.77
604.00	371.36
605.00	377.61
606.00	418.96
607.00	426.76
608.00	397.11
609.00	393.21
610.00	387.75
611.00	406.47
612.00	383.07
613.00	396.33
614.00	385.41
615.00	408.03
616.00	406.47
617.00	425.98
618.00	409.59
619.00	386.19
620.00	379.17
621.00	382.29
622.00	376.83
623.00	385.41
624.00	376.83
625.00	416.62
626.00	398.67
627.00	415.84
628.00	404.91
629.00	428.32
630.00	419.74
631.00	431.44
632.00	420.52
633.00	440.80
634.00	450.16
635.00	543.78
636.00	666.27
637.00	763.01
638.00	789.54
639.00	731.81
640.00	681.88
641.00	593.72
642.00	539.10
643.00	464.21
644.00	468.89
645.00	461.09
646.00	450.94
647.00	411.15
648.00	393.99
649.00	413.49
650.00	418.18
651.00	388.53
652.00	388.53
653.00	399.45
654.00	464.99
655.00	473.57
656.00	463.43
657.00	409.59
658.00	408.03
659.00	391.65
660.00	402.57
661.00	375.27
662.00	415.84
663.00	395.55
664.00	393.21
665.00	386.19
666.00	408.81
667.00	413.49
668.00	399.45
669.00	415.06
670.00	430.66
671.00	438.46
672.00	438.46
673.00	459.53
674.00	454.06
675.00	469.67
676.00	464.21
677.00	487.61
678.00	461.87
679.00	473.57
680.00	470.45
681.00	457.96
682.00	410.37
683.00	394.77
684.00	404.91
685.00	404.13
686.00	376.83
687.00	369.80
688.00	380.73
689.00	404.13
690.00	400.23
691.00	401.01
692.00	418.18
693.00	415.84
694.00	401.01
695.00	406.47
696.00	406.47
697.00	434.56
698.00	407.25
699.00	414.27
700.00	422.08
701.00	408.81
702.00	418.96
703.00	408.03
704.00	439.24
705.00	433.78
706.00	408.03
707.00	379.95
708.00	364.34
709.00	389.31
710.00	383.85
711.00	404.91
712.00	395.55
713.00	422.86
714.00	392.43
715.00	406.47
716.00	403.35
717.00	419.74
718.00	454.84
719.00	455.62
720.00	494.63
721.00	455.62
722.00	474.35
723.00	489.95
724.00	477.47
725.00	451.72
726.00	418.18
727.00	414.27
728.00	423.64
729.00	401.79
730.00	415.84
731.00	391.65
732.00	411.93
733.00	394.77
734.00	420.52
735.00	407.25
736.00	399.45
737.00	384.63
738.00	405.69
739.00	418.18
740.00	404.13
741.00	369.80
742.00	382.29
743.00	406.47
744.00	426.76
745.00	414.27
746.00	393.21
747.00	376.83
748.00	382.29
749.00	398.67
750.00	416.62
751.00	421.30
752.00	428.32
753.00	429.10
754.00	445.48
755.00	451.72
756.00	419.74
757.00	403.35
758.00	381.51
759.00	405.69
760.00	401.79
761.00	430.66
762.00	464.21
763.00	480.59
764.00	483.71
765.00	447.82
766.00	418.18
767.00	376.83
768.00	340.94
769.00	382.29
770.00	426.76
771.00	444.70
772.00	424.42
773.00	394.77
774.00	419.74
775.00	417.40
776.00	390.87
777.00	383.85
778.00	371.36
779.00	396.33
780.00	408.81
781.00	418.18
782.00	422.86
783.00	451.72
784.00	444.70
785.00	433.00
786.00	379.17
787.00	371.36
788.00	386.19
789.00	396.33
790.00	424.42
791.00	419.74
792.00	442.36
793.00	422.86
794.00	422.08
795.00	403.35
796.00	394.77
797.00	370.58
798.00	362.00
799.00	379.95
800.00	395.55
801.00	408.03
802.00	411.15
803.00	416.62
804.00	413.49
805.00	403.35
806.00	409.59
807.00	405.69
808.00	404.13
809.00	405.69
810.00	406.47
811.00	411.93
812.00	383.85
813.00	371.36
814.00	360.44
815.00	396.33
816.00	415.06
817.00	419.74
818.00	404.13
819.00	381.51
820.00	404.91
821.00	409.59
822.00	447.82
823.00	424.42
824.00	430.66
825.00	394.77
826.00	413.49
827.00	379.95
828.00	402.57
829.00	384.63
830.00	436.12
831.00	415.84
832.00	426.76
833.00	383.07
834.00	391.65
835.00	381.51
836.00	391.65
837.00	407.25
838.00	408.03
839.00	395.55
840.00	369.80
841.00	353.42
842.00	361.22
843.00	379.95
844.00	420.52
845.00	432.22
846.00	430.66
847.00	410.37
848.00	422.08
849.00	456.40
850.00	443.92
851.00	399.45
852.00	361.22
853.00	370.58
854.00	384.63
855.00	417.40
856.00	428.32
857.00	429.10
858.00	401.79
859.00	391.65
860.00	429.88
861.00	417.40
862.00	415.06
863.00	383.85
864.00	396.33
865.00	408.03
866.00	409.59
867.00	414.27
868.00	417.40
869.00	425.98
870.00	422.86
871.00	426.76
872.00	423.64
873.00	419.74
874.00	422.86
875.00	429.88
876.00	441.58
877.00	425.98
878.00	437.68
879.00	420.52
880.00	429.10
881.00	398.67
882.00	411.93
883.00	415.06
884.00	429.10
885.00	431.44
886.00	420.52
887.00	421.30
888.00	399.45
889.00	403.35
890.00	405.69
891.00	406.47
892.00	408.81
893.00	409.59
894.00	417.40
895.00	400.23
896.00	389.31
897.00	392.43
898.00	398.67
899.00	418.18
900.00	421.30
901.00	423.64
902.00	411.15
903.00	392.43
904.00	381.51
905.00	393.21
906.00	400.23
907.00	393.21
908.00	387.75
909.00	723.23
910.00	766.14
911.00	749.75
912.00	427.54
913.00	400.23
914.00	416.62
915.00	411.15
916.00	407.25
917.00	418.18
918.00	419.74
919.00	411.15
920.00	395.55
921.00	412.71
922.00	398.67
923.00	404.13
924.00	390.87
925.00	443.92
926.00	436.90
927.00	434.56
928.00	397.11
929.00	376.05
930.00	381.51
931.00	397.89
932.00	409.59
933.00	401.01
934.00	393.21
935.00	407.25
936.00	404.13
937.00	392.43
938.00	403.35
939.00	410.37
940.00	442.36
941.00	426.76
942.00	447.04
943.00	418.18
944.00	420.52
945.00	425.20
946.00	426.76
947.00	422.86
948.00	412.71
949.00	433.00
950.00	428.32
951.00	423.64
952.00	402.57
953.00	428.32
954.00	423.64
955.00	447.82
956.00	425.20
957.00	418.18
958.00	395.55
959.00	395.55
960.00	407.25
961.00	434.56
962.00	431.44
963.00	408.81
964.00	398.67
965.00	397.11
966.00	404.13
967.00	368.24
968.00	352.64
969.00	334.70
970.00	340.94
971.00	363.56
972.00	386.97
973.00	387.75
974.00	378.39
975.00	386.97
976.00	390.09
977.00	383.85
978.00	355.76
979.00	389.31
980.00	432.22
981.00	427.54
982.00	405.69
983.00	372.15
984.00	393.99
985.00	400.23
986.00	417.40
987.00	431.44
988.00	447.82
989.00	446.26
990.00	439.24
991.00	433.00
992.00	418.96
993.00	432.22
994.00	459.53
995.00	464.21
996.00	457.18
997.00	404.91
998.00	420.52
999.00	447.82
1000.00	477.47
1001.00	474.35
1002.00	429.10
1003.00	419.74
1004.00	397.89
1005.00	400.23
1006.00	405.69
1007.00	408.81
1008.00	408.81
1009.00	413.49
1010.00	440.02
1011.00	420.52
1012.00	417.40
1013.00	382.29
1014.00	401.01
1015.00	390.87
1016.00	390.09
1017.00	359.66
1018.00	339.38
1019.00	327.68
1020.00	344.06
1021.00	377.61
1022.00	388.53
1023.00	401.01
1024.00	404.91
1025.00	427.54
1026.00	430.66
1027.00	427.54
1028.00	414.27
1029.00	433.00
1030.00	415.84
1031.00	426.76
1032.00	404.13
1033.00	393.21
1034.00	386.97
1035.00	383.85
1036.00	397.89
1037.00	408.81
1038.00	404.13
1039.00	397.11
1040.00	403.35
1041.00	409.59
1042.00	405.69
1043.00	402.57
1044.00	399.45
1045.00	457.18
1046.00	450.94
1047.00	462.65
1048.00	407.25
1049.00	388.53
1050.00	376.83
1051.00	385.41
1052.00	424.42
1053.00	427.54
1054.00	406.47
1055.00	353.42
1056.00	358.88
1057.00	383.07
1058.00	407.25
1059.00	394.77
1060.00	378.39
1061.00	393.21
1062.00	399.45
1063.00	397.11
1064.00	381.51
1065.00	387.75
1066.00	383.85
1067.00	411.93
1068.00	414.27
1069.00	435.34
1070.00	418.96
1071.00	415.84
1072.00	408.81
1073.00	382.29
1074.00	398.67
1075.00	384.63
1076.00	405.69
1077.00	390.09
1078.00	412.71
1079.00	433.00
1080.00	448.60
1081.00	437.68
1082.00	420.52
1083.00	390.87
1084.00	383.07
1085.00	378.39
1086.00	379.17
1087.00	388.53
1088.00	388.53
1089.00	423.64
1090.00	417.40
1091.00	420.52
1092.00	403.35
1093.00	417.40
1094.00	414.27
1095.00	418.18
1096.00	390.09
1097.00	379.95
1098.00	365.90
1099.00	413.49
1100.00	409.59
1101.00	411.15
1102.00	373.71
1103.00	373.71
1104.00	362.00
1105.00	360.44
1106.00	376.05
1107.00	410.37
1108.00	383.85
1109.00	386.97
1110.00	360.44
1111.00	370.58
1112.00	362.78
1113.00	355.76
1114.00	394.77
1115.00	389.31
1116.00	415.84
1117.00	400.23
1118.00	404.13
1119.00	409.59
1120.00	421.30
1121.00	423.64
1122.00	436.90
1123.00	434.56
1124.00	450.16
1125.00	420.52
1126.00	417.40
1127.00	377.61
1128.00	385.41
1129.00	386.19
1130.00	427.54
1131.00	402.57
1132.00	427.54
1133.00	446.26
1134.00	456.40
1135.00	465.77
1136.00	436.90
1137.00	437.68
1138.00	411.15
1139.00	407.25
1140.00	398.67
1141.00	386.97
1142.00	384.63
1143.00	397.89
1144.00	418.18
1145.00	390.09
1146.00	421.30
1147.00	416.62
1148.00	452.50
1149.00	449.38
1150.00	458.75
1151.00	444.70
1152.00	462.65
1153.00	454.06
1154.00	483.71
1155.00	429.88
1156.00	426.76
1157.00	413.49
1158.00	425.20
1159.00	415.06
1160.00	397.11
1161.00	399.45
1162.00	425.20
1163.00	444.70
1164.00	447.82
1165.00	428.32
1166.00	415.84
1167.00	437.68
1168.00	436.12
1169.00	444.70
1170.00	418.18
1171.00	436.12
1172.00	423.64
1173.00	446.26
1174.00	434.56
1175.00	470.45
1176.00	445.48
1177.00	437.68
1178.00	404.13
1179.00	409.59
1180.00	433.00
1181.00	462.65
1182.00	479.03
1183.00	465.77
1184.00	455.62
1185.00	442.36
1186.00	433.00
1187.00	401.01
1188.00	383.07
1189.00	410.37
1190.00	427.54
1191.00	428.32
1192.00	393.99
1193.00	404.13
1194.00	398.67
1195.00	407.25
1196.00	395.55
1197.00	400.23
1198.00	397.89
1199.00	412.71
1200.00	425.20
1201.00	437.68
1202.00	429.88
1203.00	436.90
1204.00	409.59
1205.00	439.24
1206.00	426.76
1207.00	444.70
1208.00	401.01
1209.00	419.74
1210.00	413.49
1211.00	436.90
1212.00	426.76
1213.00	449.38
1214.00	428.32
1215.00	419.74
1216.00	408.81
1217.00	406.47
1218.00	414.27
1219.00	398.67
1220.00	420.52
1221.00	391.65
1222.00	424.42
1223.00	403.35
1224.00	419.74
1225.00	406.47
1226.00	402.57
1227.00	390.09
1228.00	389.31
1229.00	386.97
1230.00	397.89
1231.00	397.11
1232.00	422.08
1233.00	445.48
1234.00	431.44
1235.00	415.06
1236.00	390.87
1237.00	410.37
1238.00	443.14
1239.00	486.83
1240.00	480.59
1241.00	480.59
1242.00	450.16
1243.00	437.68
1244.00	417.40
1245.00	423.64
1246.00	424.42
1247.00	414.27
1248.00	401.01
1249.00	402.57
1250.00	424.42
1251.00	437.68
1252.00	450.94
1253.00	444.70
1254.00	420.52
1255.00	415.84
1256.00	402.57
1257.00	398.67
1258.00	383.85
1259.00	374.49
1260.00	393.99
1261.00	426.76
1262.00	443.92
1263.00	443.14
1264.00	433.00
1265.00	411.15
1266.00	397.11
1267.00	392.43
1268.00	416.62
1269.00	417.40
1270.00	397.11
1271.00	385.41
1272.00	383.85
1273.00	377.61
1274.00	359.66
1275.00	391.65
1276.00	440.02
1277.00	454.06
1278.00	438.46
1279.00	439.24
1280.00	453.28
1281.00	450.94
1282.00	414.27
1283.00	407.25
1284.00	435.34
1285.00	457.96
1286.00	453.28
1287.00	404.91
1288.00	395.55
1289.00	420.52
1290.00	442.36
1291.00	444.70
1292.00	425.98
1293.00	425.98
1294.00	415.06
1295.00	425.20
1296.00	443.92
1297.00	477.47
1298.00	479.81
1299.00	458.75
1300.00	436.12
1301.00	438.46
1302.00	450.16
1303.00	429.10
1304.00	436.90
1305.00	417.40
1306.00	432.22
1307.00	408.03
1308.00	434.56
1309.00	434.56
1310.00	446.26
1311.00	418.18
1312.00	405.69
1313.00	391.65
1314.00	391.65
1315.00	389.31
1316.00	393.99
1317.00	398.67
1318.00	408.81
1319.00	412.71
1320.00	401.79
1321.00	395.55
1322.00	396.33
1323.00	417.40
1324.00	399.45
1325.00	414.27
1326.00	415.84
1327.00	477.47
1328.00	476.69
1329.00	468.89
1330.00	434.56
1331.00	431.44
1332.00	435.34
1333.00	436.90
1334.00	418.96
1335.00	415.84
1336.00	424.42
1337.00	450.94
1338.00	446.26
1339.00	432.22
1340.00	396.33
1341.00	397.89
1342.00	376.05
1343.00	381.51
1344.00	379.95
1345.00	390.09
1346.00	391.65
1347.00	410.37
1348.00	401.01
1349.00	423.64
1350.00	414.27
1351.00	432.22
1352.00	408.03
1353.00	399.45
1354.00	401.01
1355.00	407.25
1356.00	429.88
1357.00	443.14
1358.00	439.24
1359.00	419.74
1360.00	409.59
1361.00	415.06
1362.00	427.54
1363.00	428.32
1364.00	450.16
1365.00	436.12
