SpectraSuite Data File
++++++++++++++++++++++++++++++++++++
Date: Thu Nov 16 14:27:22 EST 2017
User: cheriyan
Dark Spectrum Present: No
Reference Spectrum Present: No
Number of Sampled Component Spectra: 1
Spectrometers: USB2+H05261
Integration Time (usec): 100000 (USB2+H05261)
Spectra Averaged: 1 (USB2+H05261)
Boxcar Smoothing: 1 (USB2+H05261)
Correct for Electrical Dark: No (USB2+H05261)
Strobe/Lamp Enabled: No (USB2+H05261)
Correct for Detector Non-linearity: No (USB2+H05261)
Correct for Stray Light: No (USB2+H05261)
Number of Pixels in Processed Spectrum: 2048
>>>>>Begin Processed Spectral Data<<<<<
0.00	358.10
1.00	358.10
2.00	305.83
3.00	249.66
4.00	200.51
5.00	195.82
6.00	212.99
7.00	195.82
8.00	193.48
9.00	169.30
10.00	194.26
11.00	208.31
12.00	223.13
13.00	201.29
14.00	213.77
15.00	217.67
16.00	235.61
17.00	236.39
18.00	222.35
19.00	238.73
20.00	242.64
21.00	275.40
22.00	269.16
23.00	272.28
24.00	251.22
25.00	280.86
26.00	290.23
27.00	331.58
28.00	324.55
29.00	337.82
30.00	340.16
31.00	358.88
32.00	360.44
33.00	354.20
34.00	352.64
35.00	353.42
36.00	386.19
37.00	386.97
38.00	423.64
39.00	425.20
40.00	446.26
41.00	422.08
42.00	431.44
43.00	415.06
44.00	431.44
45.00	400.23
46.00	404.91
47.00	391.65
48.00	411.15
49.00	408.81
50.00	403.35
51.00	395.55
52.00	383.07
53.00	392.43
54.00	395.55
55.00	417.40
56.00	394.77
57.00	406.47
58.00	404.13
59.00	421.30
60.00	399.45
61.00	379.17
62.00	386.97
63.00	390.87
64.00	407.25
65.00	415.06
66.00	418.96
67.00	405.69
68.00	382.29
69.00	361.22
70.00	401.79
71.00	395.55
72.00	398.67
73.00	352.64
74.00	362.78
75.00	376.05
76.00	367.46
77.00	355.76
78.00	338.60
79.00	340.16
80.00	338.60
81.00	317.53
82.00	327.68
83.00	337.04
84.00	366.68
85.00	373.71
86.00	390.87
87.00	403.35
88.00	428.32
89.00	404.91
90.00	422.08
91.00	406.47
92.00	433.00
93.00	408.03
94.00	418.18
95.00	409.59
96.00	418.96
97.00	402.57
98.00	378.39
99.00	383.07
100.00	389.31
101.00	407.25
102.00	427.54
103.00	436.90
104.00	439.24
105.00	421.30
106.00	386.19
107.00	376.83
108.00	354.20
109.00	365.12
110.00	372.15
111.00	368.24
112.00	365.90
113.00	369.02
114.00	385.41
115.00	396.33
116.00	412.71
117.00	401.79
118.00	403.35
119.00	372.15
120.00	366.68
121.00	376.83
122.00	392.43
123.00	396.33
124.00	411.93
125.00	407.25
126.00	401.01
127.00	397.11
128.00	397.11
129.00	410.37
130.00	372.93
131.00	376.83
132.00	396.33
133.00	386.97
134.00	371.36
135.00	372.93
136.00	416.62
137.00	435.34
138.00	416.62
139.00	411.15
140.00	403.35
141.00	397.89
142.00	369.02
143.00	366.68
144.00	351.08
145.00	372.93
146.00	385.41
147.00	401.01
148.00	393.21
149.00	395.55
150.00	405.69
151.00	409.59
152.00	399.45
153.00	397.11
154.00	417.40
155.00	426.76
156.00	415.84
157.00	403.35
158.00	397.89
159.00	419.74
160.00	401.01
161.00	383.85
162.00	401.01
163.00	401.01
164.00	411.15
165.00	373.71
166.00	374.49
167.00	380.73
168.00	376.05
169.00	378.39
170.00	368.24
171.00	375.27
172.00	388.53
173.00	402.57
174.00	408.03
175.00	411.15
176.00	421.30
177.00	401.79
178.00	382.29
179.00	378.39
180.00	375.27
181.00	391.65
182.00	367.46
183.00	357.32
184.00	352.64
185.00	345.62
186.00	358.10
187.00	334.70
188.00	341.72
189.00	367.46
190.00	390.09
191.00	397.11
192.00	390.09
193.00	391.65
194.00	419.74
195.00	416.62
196.00	424.42
197.00	412.71
198.00	408.03
199.00	384.63
200.00	373.71
201.00	381.51
202.00	380.73
203.00	378.39
204.00	383.07
205.00	385.41
206.00	397.11
207.00	380.73
208.00	408.81
209.00	404.91
210.00	449.38
211.00	430.66
212.00	410.37
213.00	376.83
214.00	392.43
215.00	398.67
216.00	427.54
217.00	431.44
218.00	427.54
219.00	397.89
220.00	379.95
221.00	377.61
222.00	401.79
223.00	424.42
224.00	441.58
225.00	423.64
226.00	392.43
227.00	383.07
228.00	372.15
229.00	389.31
230.00	389.31
231.00	391.65
232.00	393.99
233.00	379.17
234.00	388.53
235.00	372.93
236.00	380.73
237.00	371.36
238.00	349.52
239.00	357.32
240.00	363.56
241.00	379.95
242.00	369.02
243.00	355.76
244.00	364.34
245.00	378.39
246.00	404.91
247.00	412.71
248.00	408.03
249.00	393.99
250.00	400.23
251.00	404.91
252.00	415.06
253.00	422.08
254.00	406.47
255.00	412.71
256.00	389.31
257.00	383.85
258.00	368.24
259.00	363.56
260.00	386.97
261.00	383.85
262.00	386.97
263.00	402.57
264.00	404.91
265.00	424.42
266.00	404.13
267.00	397.11
268.00	400.23
269.00	398.67
270.00	392.43
271.00	373.71
272.00	363.56
273.00	367.46
274.00	365.90
275.00	386.97
276.00	412.71
277.00	407.25
278.00	429.10
279.00	404.13
280.00	418.18
281.00	389.31
282.00	411.15
283.00	435.34
284.00	446.26
285.00	423.64
286.00	413.49
287.00	394.77
288.00	419.74
289.00	401.01
290.00	425.20
291.00	429.88
292.00	438.46
293.00	425.98
294.00	389.31
295.00	402.57
296.00	383.85
297.00	420.52
298.00	390.09
299.00	399.45
300.00	353.42
301.00	362.78
302.00	359.66
303.00	377.61
304.00	358.10
305.00	350.30
306.00	375.27
307.00	402.57
308.00	440.80
309.00	424.42
310.00	401.01
311.00	395.55
312.00	418.96
313.00	425.20
314.00	415.84
315.00	401.01
316.00	422.08
317.00	411.93
318.00	413.49
319.00	384.63
320.00	368.24
321.00	370.58
322.00	387.75
323.00	385.41
324.00	371.36
325.00	371.36
326.00	395.55
327.00	422.86
328.00	433.00
329.00	433.78
330.00	379.17
331.00	347.18
332.00	344.06
333.00	361.22
334.00	372.93
335.00	378.39
336.00	381.51
337.00	404.13
338.00	370.58
339.00	386.19
340.00	373.71
341.00	411.93
342.00	411.15
343.00	410.37
344.00	411.93
345.00	407.25
346.00	419.74
347.00	425.98
348.00	426.76
349.00	417.40
350.00	404.91
351.00	409.59
352.00	433.78
353.00	438.46
354.00	432.22
355.00	384.63
356.00	354.98
357.00	345.62
358.00	343.28
359.00	358.88
360.00	386.97
361.00	420.52
362.00	402.57
363.00	381.51
364.00	357.32
365.00	397.11
366.00	399.45
367.00	412.71
368.00	412.71
369.00	430.66
370.00	429.10
371.00	423.64
372.00	429.88
373.00	414.27
374.00	394.77
375.00	367.46
376.00	390.87
377.00	404.13
378.00	415.06
379.00	427.54
380.00	422.86
381.00	417.40
382.00	382.29
383.00	383.07
384.00	390.09
385.00	411.93
386.00	414.27
387.00	402.57
388.00	390.87
389.00	389.31
390.00	379.17
391.00	376.05
392.00	386.97
393.00	428.32
394.00	418.96
395.00	426.76
396.00	402.57
397.00	445.48
398.00	439.24
399.00	429.88
400.00	382.29
401.00	372.93
402.00	354.20
403.00	388.53
404.00	367.46
405.00	399.45
406.00	368.24
407.00	402.57
408.00	383.85
409.00	384.63
410.00	376.05
411.00	390.87
412.00	422.86
413.00	418.96
414.00	426.76
415.00	440.80
416.00	449.38
417.00	428.32
418.00	390.09
419.00	396.33
420.00	401.01
421.00	422.08
422.00	397.11
423.00	395.55
424.00	386.19
425.00	376.05
426.00	387.75
427.00	373.71
428.00	383.07
429.00	386.19
430.00	399.45
431.00	396.33
432.00	390.09
433.00	390.87
434.00	402.57
435.00	404.13
436.00	400.23
437.00	386.97
438.00	362.78
439.00	352.64
440.00	360.44
441.00	390.09
442.00	411.93
443.00	422.08
444.00	412.71
445.00	411.93
446.00	406.47
447.00	390.09
448.00	368.24
449.00	369.02
450.00	369.02
451.00	372.93
452.00	362.78
453.00	372.15
454.00	387.75
455.00	409.59
456.00	431.44
457.00	442.36
458.00	425.98
459.00	411.93
460.00	395.55
461.00	406.47
462.00	421.30
463.00	410.37
464.00	422.86
465.00	411.15
466.00	439.24
467.00	410.37
468.00	387.75
469.00	386.19
470.00	378.39
471.00	397.11
472.00	384.63
473.00	395.55
474.00	404.13
475.00	418.18
476.00	447.82
477.00	444.70
478.00	435.34
479.00	418.18
480.00	407.25
481.00	410.37
482.00	399.45
483.00	414.27
484.00	420.52
485.00	440.02
486.00	418.96
487.00	383.07
488.00	381.51
489.00	400.23
490.00	425.20
491.00	419.74
492.00	421.30
493.00	432.22
494.00	464.99
495.00	450.94
496.00	436.12
497.00	401.01
498.00	404.91
499.00	407.25
500.00	411.15
501.00	393.21
502.00	405.69
503.00	386.19
504.00	415.84
505.00	383.85
506.00	390.87
507.00	395.55
508.00	441.58
509.00	450.16
510.00	469.67
511.00	458.75
512.00	487.61
513.00	433.00
514.00	418.18
515.00	374.49
516.00	395.55
517.00	417.40
518.00	437.68
519.00	431.44
520.00	398.67
521.00	369.02
522.00	375.27
523.00	378.39
524.00	390.87
525.00	401.79
526.00	408.81
527.00	394.77
528.00	368.24
529.00	365.12
530.00	390.09
531.00	404.91
532.00	420.52
533.00	420.52
534.00	412.71
535.00	410.37
536.00	420.52
537.00	450.16
538.00	443.92
539.00	425.98
540.00	399.45
541.00	379.95
542.00	368.24
543.00	365.12
544.00	401.79
545.00	418.18
546.00	419.74
547.00	401.01
548.00	405.69
549.00	411.15
550.00	430.66
551.00	414.27
552.00	435.34
553.00	419.74
554.00	422.86
555.00	388.53
556.00	389.31
557.00	408.03
558.00	439.24
559.00	440.80
560.00	418.18
561.00	412.71
562.00	381.51
563.00	372.15
564.00	358.88
565.00	362.78
566.00	375.27
567.00	370.58
568.00	393.99
569.00	393.21
570.00	387.75
571.00	401.79
572.00	418.18
573.00	432.22
574.00	397.11
575.00	383.07
576.00	365.12
577.00	366.68
578.00	385.41
579.00	402.57
580.00	407.25
581.00	383.07
582.00	374.49
583.00	394.77
584.00	411.15
585.00	428.32
586.00	429.88
587.00	425.20
588.00	415.84
589.00	418.18
590.00	413.49
591.00	417.40
592.00	397.89
593.00	388.53
594.00	397.11
595.00	388.53
596.00	411.93
597.00	404.91
598.00	411.93
599.00	409.59
600.00	408.03
601.00	438.46
602.00	418.96
603.00	426.76
604.00	398.67
605.00	394.77
606.00	404.91
607.00	418.18
608.00	451.72
609.00	426.76
610.00	429.88
611.00	408.81
612.00	411.93
613.00	392.43
614.00	386.19
615.00	388.53
616.00	411.15
617.00	414.27
618.00	383.07
619.00	381.51
620.00	370.58
621.00	420.52
622.00	408.03
623.00	430.66
624.00	398.67
625.00	404.13
626.00	378.39
627.00	355.76
628.00	354.20
629.00	388.53
630.00	412.71
631.00	413.49
632.00	402.57
633.00	434.56
634.00	451.72
635.00	526.62
636.00	592.16
637.00	653.01
638.00	643.65
639.00	631.94
640.00	574.99
641.00	536.76
642.00	454.06
643.00	427.54
644.00	419.74
645.00	453.28
646.00	441.58
647.00	430.66
648.00	393.21
649.00	429.10
650.00	425.20
651.00	435.34
652.00	403.35
653.00	397.89
654.00	431.44
655.00	448.60
656.00	457.18
657.00	421.30
658.00	397.89
659.00	406.47
660.00	418.18
661.00	418.18
662.00	411.93
663.00	392.43
664.00	406.47
665.00	392.43
666.00	402.57
667.00	386.97
668.00	387.75
669.00	375.27
670.00	374.49
671.00	364.34
672.00	377.61
673.00	383.85
674.00	379.95
675.00	405.69
676.00	414.27
677.00	464.99
678.00	456.40
679.00	464.21
680.00	430.66
681.00	415.06
682.00	396.33
683.00	390.87
684.00	379.17
685.00	362.00
686.00	334.70
687.00	333.14
688.00	355.76
689.00	407.25
690.00	391.65
691.00	402.57
692.00	373.71
693.00	399.45
694.00	391.65
695.00	429.10
696.00	432.22
697.00	436.90
698.00	415.84
699.00	408.81
700.00	437.68
701.00	415.84
702.00	418.18
703.00	381.51
704.00	397.11
705.00	401.01
706.00	418.18
707.00	415.06
708.00	384.63
709.00	348.74
710.00	326.11
711.00	353.42
712.00	372.93
713.00	373.71
714.00	364.34
715.00	358.88
716.00	365.12
717.00	380.73
718.00	423.64
719.00	464.21
720.00	472.01
721.00	440.02
722.00	437.68
723.00	453.28
724.00	444.70
725.00	443.92
726.00	448.60
727.00	469.67
728.00	429.10
729.00	392.43
730.00	361.22
731.00	379.17
732.00	371.36
733.00	403.35
734.00	427.54
735.00	437.68
736.00	436.90
737.00	430.66
738.00	442.36
739.00	425.98
740.00	401.01
741.00	412.71
742.00	394.77
743.00	419.74
744.00	399.45
745.00	419.74
746.00	433.00
747.00	443.92
748.00	429.10
749.00	412.71
750.00	411.93
751.00	448.60
752.00	439.24
753.00	455.62
754.00	457.18
755.00	454.84
756.00	447.04
757.00	416.62
758.00	419.74
759.00	410.37
760.00	446.26
761.00	471.23
762.00	472.01
763.00	447.04
764.00	436.12
765.00	425.20
766.00	408.03
767.00	393.99
768.00	402.57
769.00	396.33
770.00	383.07
771.00	373.71
772.00	379.17
773.00	393.99
774.00	376.05
775.00	399.45
776.00	407.25
777.00	429.88
778.00	438.46
779.00	423.64
780.00	396.33
781.00	388.53
782.00	408.03
783.00	497.75
784.00	486.05
785.00	464.99
786.00	373.71
787.00	372.15
788.00	382.29
789.00	394.77
790.00	404.13
791.00	396.33
792.00	401.01
793.00	362.00
794.00	352.64
795.00	356.54
796.00	373.71
797.00	383.07
798.00	365.12
799.00	381.51
800.00	386.97
801.00	393.99
802.00	383.85
803.00	382.29
804.00	414.27
805.00	406.47
806.00	392.43
807.00	376.83
808.00	392.43
809.00	404.13
810.00	399.45
811.00	416.62
812.00	435.34
813.00	452.50
814.00	434.56
815.00	414.27
816.00	408.03
817.00	421.30
818.00	423.64
819.00	403.35
820.00	400.23
821.00	401.01
822.00	461.87
823.00	468.89
824.00	457.96
825.00	401.79
826.00	385.41
827.00	404.13
828.00	397.89
829.00	394.77
830.00	386.97
831.00	402.57
832.00	408.81
833.00	405.69
834.00	401.79
835.00	402.57
836.00	390.87
837.00	387.75
838.00	409.59
839.00	397.11
840.00	401.79
841.00	381.51
842.00	400.23
843.00	395.55
844.00	421.30
845.00	425.98
846.00	409.59
847.00	352.64
848.00	354.98
849.00	390.09
850.00	422.08
851.00	418.96
852.00	420.52
853.00	399.45
854.00	383.85
855.00	379.17
856.00	372.93
857.00	387.75
858.00	400.23
859.00	409.59
860.00	390.87
861.00	385.41
862.00	410.37
863.00	416.62
864.00	379.95
865.00	371.36
866.00	395.55
867.00	421.30
868.00	429.10
869.00	430.66
870.00	450.16
871.00	460.31
872.00	457.18
873.00	415.84
874.00	389.31
875.00	354.20
876.00	387.75
877.00	381.51
878.00	412.71
879.00	401.79
880.00	405.69
881.00	419.74
882.00	437.68
883.00	457.18
884.00	423.64
885.00	387.75
886.00	375.27
887.00	393.99
888.00	407.25
889.00	427.54
890.00	416.62
891.00	394.77
892.00	362.78
893.00	337.82
894.00	349.52
895.00	376.05
896.00	410.37
897.00	425.98
898.00	429.10
899.00	440.80
900.00	428.32
901.00	411.93
902.00	388.53
903.00	405.69
904.00	415.84
905.00	424.42
906.00	406.47
907.00	391.65
908.00	395.55
909.00	752.87
910.00	766.14
911.00	753.65
912.00	398.67
913.00	390.09
914.00	402.57
915.00	390.87
916.00	386.19
917.00	399.45
918.00	415.84
919.00	429.10
920.00	419.74
921.00	428.32
922.00	407.25
923.00	398.67
924.00	379.95
925.00	387.75
926.00	394.77
927.00	401.01
928.00	402.57
929.00	401.79
930.00	408.03
931.00	404.13
932.00	391.65
933.00	375.27
934.00	369.80
935.00	400.23
936.00	403.35
937.00	401.01
938.00	366.68
939.00	365.12
940.00	387.75
941.00	415.84
942.00	416.62
943.00	428.32
944.00	429.10
945.00	454.84
946.00	457.18
947.00	436.12
948.00	413.49
949.00	416.62
950.00	434.56
951.00	459.53
952.00	462.65
953.00	454.06
954.00	436.12
955.00	436.90
956.00	425.98
957.00	452.50
958.00	423.64
959.00	425.20
960.00	410.37
961.00	422.08
962.00	428.32
963.00	409.59
964.00	367.46
965.00	364.34
966.00	358.10
967.00	376.83
968.00	379.95
969.00	391.65
970.00	399.45
971.00	401.01
972.00	415.84
973.00	403.35
974.00	402.57
975.00	386.19
976.00	422.08
977.00	408.81
978.00	408.03
979.00	400.23
980.00	422.08
981.00	422.08
982.00	415.84
983.00	411.93
984.00	403.35
985.00	407.25
986.00	404.91
987.00	422.08
988.00	422.08
989.00	409.59
990.00	401.79
991.00	360.44
992.00	386.19
993.00	389.31
994.00	408.03
995.00	386.19
996.00	409.59
997.00	425.98
998.00	412.71
999.00	390.87
1000.00	372.93
1001.00	385.41
1002.00	393.99
1003.00	408.03
1004.00	442.36
1005.00	435.34
1006.00	427.54
1007.00	362.00
1008.00	351.08
1009.00	355.76
1010.00	380.73
1011.00	393.99
1012.00	425.20
1013.00	448.60
1014.00	451.72
1015.00	431.44
1016.00	416.62
1017.00	414.27
1018.00	394.77
1019.00	394.77
1020.00	382.29
1021.00	385.41
1022.00	365.90
1023.00	366.68
1024.00	386.97
1025.00	404.91
1026.00	407.25
1027.00	376.05
1028.00	361.22
1029.00	337.04
1030.00	361.22
1031.00	389.31
1032.00	420.52
1033.00	429.88
1034.00	422.86
1035.00	431.44
1036.00	428.32
1037.00	444.70
1038.00	430.66
1039.00	422.08
1040.00	429.10
1041.00	432.22
1042.00	449.38
1043.00	449.38
1044.00	435.34
1045.00	470.45
1046.00	469.67
1047.00	475.13
1048.00	411.15
1049.00	376.05
1050.00	365.12
1051.00	355.76
1052.00	347.96
1053.00	392.43
1054.00	395.55
1055.00	418.18
1056.00	381.51
1057.00	397.89
1058.00	396.33
1059.00	388.53
1060.00	376.05
1061.00	377.61
1062.00	393.99
1063.00	404.91
1064.00	411.15
1065.00	433.78
1066.00	442.36
1067.00	419.74
1068.00	403.35
1069.00	383.85
1070.00	376.83
1071.00	379.95
1072.00	369.02
1073.00	389.31
1074.00	386.19
1075.00	408.03
1076.00	411.93
1077.00	394.77
1078.00	400.23
1079.00	403.35
1080.00	425.20
1081.00	425.20
1082.00	411.15
1083.00	384.63
1084.00	384.63
1085.00	394.77
1086.00	440.80
1087.00	440.80
1088.00	456.40
1089.00	411.93
1090.00	395.55
1091.00	368.24
1092.00	365.12
1093.00	390.87
1094.00	402.57
1095.00	442.36
1096.00	433.00
1097.00	416.62
1098.00	412.71
1099.00	404.13
1100.00	423.64
1101.00	401.79
1102.00	410.37
1103.00	381.51
1104.00	375.27
1105.00	348.74
1106.00	371.36
1107.00	382.29
1108.00	401.01
1109.00	400.23
1110.00	413.49
1111.00	409.59
1112.00	407.25
1113.00	403.35
1114.00	433.00
1115.00	432.22
1116.00	422.86
1117.00	404.91
1118.00	397.89
1119.00	364.34
1120.00	371.36
1121.00	390.09
1122.00	462.65
1123.00	448.60
1124.00	452.50
1125.00	405.69
1126.00	422.08
1127.00	383.85
1128.00	408.81
1129.00	422.08
1130.00	464.21
1131.00	457.96
1132.00	411.93
1133.00	399.45
1134.00	379.95
1135.00	393.21
1136.00	405.69
1137.00	424.42
1138.00	412.71
1139.00	402.57
1140.00	397.11
1141.00	414.27
1142.00	410.37
1143.00	378.39
1144.00	380.73
1145.00	392.43
1146.00	408.03
1147.00	399.45
1148.00	397.11
1149.00	402.57
1150.00	413.49
1151.00	404.13
1152.00	426.76
1153.00	455.62
1154.00	443.92
1155.00	414.27
1156.00	365.12
1157.00	370.58
1158.00	403.35
1159.00	421.30
1160.00	418.96
1161.00	387.75
1162.00	376.05
1163.00	370.58
1164.00	399.45
1165.00	433.78
1166.00	440.02
1167.00	414.27
1168.00	373.71
1169.00	389.31
1170.00	392.43
1171.00	429.88
1172.00	446.26
1173.00	456.40
1174.00	457.18
1175.00	441.58
1176.00	460.31
1177.00	415.06
1178.00	415.06
1179.00	415.84
1180.00	440.80
1181.00	452.50
1182.00	443.92
1183.00	441.58
1184.00	436.12
1185.00	422.86
1186.00	395.55
1187.00	370.58
1188.00	352.64
1189.00	376.05
1190.00	379.17
1191.00	386.19
1192.00	393.99
1193.00	396.33
1194.00	417.40
1195.00	403.35
1196.00	401.01
1197.00	412.71
1198.00	449.38
1199.00	473.57
1200.00	448.60
1201.00	423.64
1202.00	409.59
1203.00	404.13
1204.00	406.47
1205.00	410.37
1206.00	425.98
1207.00	426.76
1208.00	409.59
1209.00	397.11
1210.00	409.59
1211.00	443.14
1212.00	473.57
1213.00	455.62
1214.00	434.56
1215.00	397.89
1216.00	409.59
1217.00	418.96
1218.00	439.24
1219.00	427.54
1220.00	392.43
1221.00	373.71
1222.00	387.75
1223.00	417.40
1224.00	420.52
1225.00	391.65
1226.00	392.43
1227.00	388.53
1228.00	416.62
1229.00	389.31
1230.00	402.57
1231.00	406.47
1232.00	436.12
1233.00	433.78
1234.00	452.50
1235.00	468.89
1236.00	463.43
1237.00	416.62
1238.00	372.93
1239.00	410.37
1240.00	422.86
1241.00	455.62
1242.00	450.16
1243.00	457.96
1244.00	437.68
1245.00	422.08
1246.00	404.91
1247.00	397.11
1248.00	381.51
1249.00	401.01
1250.00	417.40
1251.00	446.26
1252.00	436.12
1253.00	418.96
1254.00	384.63
1255.00	393.99
1256.00	411.93
1257.00	421.30
1258.00	380.73
1259.00	344.06
1260.00	352.64
1261.00	390.09
1262.00	433.00
1263.00	415.06
1264.00	411.93
1265.00	381.51
1266.00	377.61
1267.00	376.05
1268.00	400.23
1269.00	425.98
1270.00	419.74
1271.00	421.30
1272.00	395.55
1273.00	393.99
1274.00	379.95
1275.00	397.89
1276.00	400.23
1277.00	379.95
1278.00	364.34
1279.00	385.41
1280.00	425.20
1281.00	462.65
1282.00	445.48
1283.00	433.00
1284.00	410.37
1285.00	437.68
1286.00	440.80
1287.00	418.18
1288.00	408.81
1289.00	421.30
1290.00	434.56
1291.00	420.52
1292.00	387.75
1293.00	394.77
1294.00	390.87
1295.00	411.93
1296.00	410.37
1297.00	423.64
1298.00	443.14
1299.00	456.40
1300.00	425.20
1301.00	379.95
1302.00	385.41
1303.00	384.63
1304.00	422.08
1305.00	386.97
1306.00	424.42
1307.00	401.79
1308.00	428.32
1309.00	411.93
1310.00	390.87
1311.00	382.29
1312.00	381.51
1313.00	422.08
1314.00	414.27
1315.00	418.96
1316.00	406.47
1317.00	411.15
1318.00	395.55
1319.00	400.23
1320.00	417.40
1321.00	411.15
1322.00	391.65
1323.00	378.39
1324.00	404.13
1325.00	418.96
1326.00	406.47
1327.00	402.57
1328.00	416.62
1329.00	425.98
1330.00	418.96
1331.00	433.00
1332.00	433.78
1333.00	420.52
1334.00	397.11
1335.00	424.42
1336.00	422.08
1337.00	419.74
1338.00	372.93
1339.00	399.45
1340.00	380.73
1341.00	392.43
1342.00	415.06
1343.00	429.10
1344.00	415.84
1345.00	397.89
1346.00	393.21
1347.00	415.06
1348.00	398.67
1349.00	414.27
1350.00	417.40
1351.00	411.93
1352.00	418.18
1353.00	402.57
1354.00	397.11
1355.00	383.07
1356.00	400.23
1357.00	416.62
1358.00	409.59
1359.00	424.42
1360.00	434.56
1361.00	453.28
1362.00	454.06
1363.00	449.38
1364.00	458.75
1365.00	441.58
