SpectraSuite Data File
++++++++++++++++++++++++++++++++++++
Date: Thu Nov 16 14:27:24 EST 2017
User: cheriyan
Dark Spectrum Present: No
Reference Spectrum Present: No
Number of Sampled Component Spectra: 1
Spectrometers: USB2+H05261
Integration Time (usec): 100000 (USB2+H05261)
Spectra Averaged: 1 (USB2+H05261)
Boxcar Smoothing: 1 (USB2+H05261)
Correct for Electrical Dark: No (USB2+H05261)
Strobe/Lamp Enabled: No (USB2+H05261)
Correct for Detector Non-linearity: No (USB2+H05261)
Correct for Stray Light: No (USB2+H05261)
Number of Pixels in Processed Spectrum: 2048
>>>>>Begin Processed Spectral Data<<<<<
0.00	339.38
1.00	339.38
2.00	311.29
3.00	293.35
4.00	251.22
5.00	219.23
6.00	197.39
7.00	184.90
8.00	216.11
9.00	196.61
10.00	207.53
11.00	206.75
12.00	217.67
13.00	232.49
14.00	241.08
15.00	227.81
16.00	227.03
17.00	223.13
18.00	280.08
19.00	272.28
20.00	268.38
21.00	252.78
22.00	280.86
23.00	286.33
24.00	295.69
25.00	282.42
26.00	311.29
27.00	358.10
28.00	373.71
29.00	377.61
30.00	362.00
31.00	354.20
32.00	332.36
33.00	316.75
34.00	359.66
35.00	410.37
36.00	431.44
37.00	425.20
38.00	373.71
39.00	364.34
40.00	370.58
41.00	399.45
42.00	418.96
43.00	418.96
44.00	435.34
45.00	404.13
46.00	393.99
47.00	375.27
48.00	398.67
49.00	390.87
50.00	417.40
51.00	427.54
52.00	461.09
53.00	443.92
54.00	411.15
55.00	386.97
56.00	386.19
57.00	393.99
58.00	389.31
59.00	392.43
60.00	395.55
61.00	414.27
62.00	398.67
63.00	402.57
64.00	387.75
65.00	382.29
66.00	368.24
67.00	371.36
68.00	382.29
69.00	376.83
70.00	368.24
71.00	384.63
72.00	398.67
73.00	410.37
74.00	414.27
75.00	428.32
76.00	413.49
77.00	400.23
78.00	370.58
79.00	370.58
80.00	357.32
81.00	357.32
82.00	338.60
83.00	328.46
84.00	338.60
85.00	372.93
86.00	379.95
87.00	390.87
88.00	411.15
89.00	438.46
90.00	455.62
91.00	441.58
92.00	415.84
93.00	372.15
94.00	350.30
95.00	364.34
96.00	386.97
97.00	393.99
98.00	372.15
99.00	337.04
100.00	324.55
101.00	339.38
102.00	374.49
103.00	397.11
104.00	386.19
105.00	381.51
106.00	365.90
107.00	373.71
108.00	375.27
109.00	368.24
110.00	377.61
111.00	366.68
112.00	381.51
113.00	386.19
114.00	384.63
115.00	373.71
116.00	359.66
117.00	365.90
118.00	364.34
119.00	377.61
120.00	378.39
121.00	369.02
122.00	362.78
123.00	351.08
124.00	369.80
125.00	357.32
126.00	358.10
127.00	376.05
128.00	382.29
129.00	397.89
130.00	381.51
131.00	393.21
132.00	397.11
133.00	412.71
134.00	400.23
135.00	395.55
136.00	373.71
137.00	389.31
138.00	396.33
139.00	399.45
140.00	372.93
141.00	369.80
142.00	343.28
143.00	360.44
144.00	362.00
145.00	379.95
146.00	351.08
147.00	337.82
148.00	369.80
149.00	392.43
150.00	412.71
151.00	395.55
152.00	389.31
153.00	377.61
154.00	400.23
155.00	411.93
156.00	422.86
157.00	392.43
158.00	377.61
159.00	375.27
160.00	379.95
161.00	390.09
162.00	391.65
163.00	390.87
164.00	391.65
165.00	372.15
166.00	372.93
167.00	371.36
168.00	393.99
169.00	399.45
170.00	391.65
171.00	381.51
172.00	379.95
173.00	396.33
174.00	390.87
175.00	383.07
176.00	365.90
177.00	376.05
178.00	385.41
179.00	390.09
180.00	387.75
181.00	385.41
182.00	401.01
183.00	397.89
184.00	394.77
185.00	372.93
186.00	358.10
187.00	337.82
188.00	362.78
189.00	378.39
190.00	393.21
191.00	372.15
192.00	368.24
193.00	358.88
194.00	377.61
195.00	397.89
196.00	422.08
197.00	413.49
198.00	384.63
199.00	379.95
200.00	384.63
201.00	405.69
202.00	386.19
203.00	379.17
204.00	365.12
205.00	379.17
206.00	390.87
207.00	375.27
208.00	380.73
209.00	377.61
210.00	415.06
211.00	434.56
212.00	440.02
213.00	418.18
214.00	382.29
215.00	379.17
216.00	420.52
217.00	433.00
218.00	425.98
219.00	372.15
220.00	384.63
221.00	411.15
222.00	442.36
223.00	434.56
224.00	410.37
225.00	388.53
226.00	350.30
227.00	334.70
228.00	333.14
229.00	391.65
230.00	425.98
231.00	422.08
232.00	395.55
233.00	370.58
234.00	381.51
235.00	360.44
236.00	383.07
237.00	388.53
238.00	394.77
239.00	370.58
240.00	369.02
241.00	393.21
242.00	431.44
243.00	422.08
244.00	439.24
245.00	404.13
246.00	389.31
247.00	367.46
248.00	364.34
249.00	377.61
250.00	376.05
251.00	383.85
252.00	403.35
253.00	394.77
254.00	405.69
255.00	403.35
256.00	411.15
257.00	371.36
258.00	379.95
259.00	398.67
260.00	415.06
261.00	386.19
262.00	359.66
263.00	388.53
264.00	394.77
265.00	394.77
266.00	374.49
267.00	386.97
268.00	393.99
269.00	352.64
270.00	369.02
271.00	369.80
272.00	419.74
273.00	418.18
274.00	428.32
275.00	435.34
276.00	411.93
277.00	390.09
278.00	375.27
279.00	400.23
280.00	427.54
281.00	429.10
282.00	402.57
283.00	396.33
284.00	407.25
285.00	406.47
286.00	397.89
287.00	379.95
288.00	402.57
289.00	403.35
290.00	413.49
291.00	410.37
292.00	407.25
293.00	384.63
294.00	367.46
295.00	355.76
296.00	359.66
297.00	375.27
298.00	378.39
299.00	382.29
300.00	364.34
301.00	355.76
302.00	347.18
303.00	372.15
304.00	388.53
305.00	429.10
306.00	438.46
307.00	443.14
308.00	420.52
309.00	384.63
310.00	385.41
311.00	401.01
312.00	417.40
313.00	389.31
314.00	380.73
315.00	375.27
316.00	400.23
317.00	401.79
318.00	379.17
319.00	393.99
320.00	388.53
321.00	422.86
322.00	414.27
323.00	411.15
324.00	388.53
325.00	393.99
326.00	414.27
327.00	428.32
328.00	415.84
329.00	393.99
330.00	393.21
331.00	388.53
332.00	426.76
333.00	450.16
334.00	464.99
335.00	411.93
336.00	388.53
337.00	391.65
338.00	401.79
339.00	401.01
340.00	369.80
341.00	380.73
342.00	375.27
343.00	397.11
344.00	415.84
345.00	408.03
346.00	426.76
347.00	404.13
348.00	401.79
349.00	383.07
350.00	401.01
351.00	435.34
352.00	464.99
353.00	459.53
354.00	441.58
355.00	397.11
356.00	389.31
357.00	386.97
358.00	395.55
359.00	399.45
360.00	405.69
361.00	425.98
362.00	404.13
363.00	385.41
364.00	377.61
365.00	402.57
366.00	415.84
367.00	422.08
368.00	439.24
369.00	461.87
370.00	443.92
371.00	400.23
372.00	365.90
373.00	373.71
374.00	402.57
375.00	392.43
376.00	380.73
377.00	363.56
378.00	395.55
379.00	409.59
380.00	384.63
381.00	359.66
382.00	343.28
383.00	385.41
384.00	389.31
385.00	428.32
386.00	409.59
387.00	423.64
388.00	398.67
389.00	406.47
390.00	387.75
391.00	374.49
392.00	388.53
393.00	402.57
394.00	385.41
395.00	393.99
396.00	413.49
397.00	456.40
398.00	433.00
399.00	422.86
400.00	397.11
401.00	401.01
402.00	400.23
403.00	415.84
404.00	418.18
405.00	416.62
406.00	427.54
407.00	429.88
408.00	426.76
409.00	433.00
410.00	444.70
411.00	442.36
412.00	418.96
413.00	407.25
414.00	390.87
415.00	393.99
416.00	396.33
417.00	410.37
418.00	404.91
419.00	390.09
420.00	380.73
421.00	390.09
422.00	390.09
423.00	391.65
424.00	388.53
425.00	386.97
426.00	402.57
427.00	415.84
428.00	422.86
429.00	441.58
430.00	417.40
431.00	421.30
432.00	387.75
433.00	401.01
434.00	393.99
435.00	395.55
436.00	383.85
437.00	383.07
438.00	397.11
439.00	403.35
440.00	415.84
441.00	425.20
442.00	410.37
443.00	399.45
444.00	388.53
445.00	393.99
446.00	412.71
447.00	433.00
448.00	446.26
449.00	432.22
450.00	406.47
451.00	409.59
452.00	401.79
453.00	413.49
454.00	398.67
455.00	411.93
456.00	396.33
457.00	397.11
458.00	354.20
459.00	351.86
460.00	351.86
461.00	387.75
462.00	396.33
463.00	396.33
464.00	390.87
465.00	404.13
466.00	397.11
467.00	389.31
468.00	371.36
469.00	358.88
470.00	374.49
471.00	372.15
472.00	377.61
473.00	372.93
474.00	376.83
475.00	385.41
476.00	369.02
477.00	378.39
478.00	393.21
479.00	417.40
480.00	416.62
481.00	429.88
482.00	422.86
483.00	425.20
484.00	433.00
485.00	396.33
486.00	377.61
487.00	361.22
488.00	396.33
489.00	405.69
490.00	376.83
491.00	374.49
492.00	362.00
493.00	393.21
494.00	413.49
495.00	434.56
496.00	435.34
497.00	409.59
498.00	401.01
499.00	389.31
500.00	431.44
501.00	446.26
502.00	434.56
503.00	397.11
504.00	365.12
505.00	372.15
506.00	391.65
507.00	403.35
508.00	416.62
509.00	388.53
510.00	410.37
511.00	415.06
512.00	441.58
513.00	429.10
514.00	422.86
515.00	420.52
516.00	417.40
517.00	412.71
518.00	403.35
519.00	404.91
520.00	402.57
521.00	401.01
522.00	411.93
523.00	422.08
524.00	407.25
525.00	403.35
526.00	399.45
527.00	425.20
528.00	401.01
529.00	388.53
530.00	390.09
531.00	415.84
532.00	418.96
533.00	431.44
534.00	443.92
535.00	454.84
536.00	440.80
537.00	422.08
538.00	424.42
539.00	427.54
540.00	420.52
541.00	403.35
542.00	395.55
543.00	420.52
544.00	431.44
545.00	420.52
546.00	382.29
547.00	377.61
548.00	384.63
549.00	409.59
550.00	413.49
551.00	412.71
552.00	415.84
553.00	440.80
554.00	445.48
555.00	456.40
556.00	421.30
557.00	408.81
558.00	362.78
559.00	383.07
560.00	370.58
561.00	369.80
562.00	330.02
563.00	326.89
564.00	343.28
565.00	369.80
566.00	404.91
567.00	401.01
568.00	397.11
569.00	376.83
570.00	380.73
571.00	386.19
572.00	390.09
573.00	417.40
574.00	449.38
575.00	447.82
576.00	419.74
577.00	352.64
578.00	368.24
579.00	372.15
580.00	395.55
581.00	389.31
582.00	407.25
583.00	443.14
584.00	445.48
585.00	426.76
586.00	397.89
587.00	383.07
588.00	394.77
589.00	418.96
590.00	430.66
591.00	425.98
592.00	405.69
593.00	401.79
594.00	379.17
595.00	378.39
596.00	372.15
597.00	376.05
598.00	391.65
599.00	420.52
600.00	482.15
601.00	477.47
602.00	443.14
603.00	399.45
604.00	392.43
605.00	404.13
606.00	404.13
607.00	394.77
608.00	401.79
609.00	404.13
610.00	396.33
611.00	376.05
612.00	352.64
613.00	330.02
614.00	337.82
615.00	374.49
616.00	421.30
617.00	443.14
618.00	415.84
619.00	389.31
620.00	394.77
621.00	410.37
622.00	411.93
623.00	387.75
624.00	407.25
625.00	433.00
626.00	431.44
627.00	411.15
628.00	393.99
629.00	414.27
630.00	397.11
631.00	393.21
632.00	381.51
633.00	411.15
634.00	457.96
635.00	499.31
636.00	593.72
637.00	628.04
638.00	653.79
639.00	596.06
640.00	548.47
641.00	496.97
642.00	454.06
643.00	445.48
644.00	436.12
645.00	443.14
646.00	425.20
647.00	431.44
648.00	415.06
649.00	409.59
650.00	425.20
651.00	415.84
652.00	418.18
653.00	379.95
654.00	425.20
655.00	433.78
656.00	450.94
657.00	391.65
658.00	379.95
659.00	370.58
660.00	382.29
661.00	388.53
662.00	377.61
663.00	379.17
664.00	384.63
665.00	390.09
666.00	383.07
667.00	369.80
668.00	362.78
669.00	389.31
670.00	391.65
671.00	402.57
672.00	397.11
673.00	419.74
674.00	402.57
675.00	406.47
676.00	415.84
677.00	426.76
678.00	427.54
679.00	442.36
680.00	474.35
681.00	464.21
682.00	425.98
683.00	401.79
684.00	402.57
685.00	401.01
686.00	394.77
687.00	377.61
688.00	368.24
689.00	365.90
690.00	376.83
691.00	379.17
692.00	383.07
693.00	397.89
694.00	390.87
695.00	412.71
696.00	403.35
697.00	390.09
698.00	383.85
699.00	369.02
700.00	405.69
701.00	396.33
702.00	411.15
703.00	416.62
704.00	413.49
705.00	415.06
706.00	397.89
707.00	398.67
708.00	401.79
709.00	416.62
710.00	419.74
711.00	416.62
712.00	397.11
713.00	390.87
714.00	392.43
715.00	407.25
716.00	426.76
717.00	459.53
718.00	507.12
719.00	496.97
720.00	461.87
721.00	421.30
722.00	426.76
723.00	440.80
724.00	456.40
725.00	457.96
726.00	450.94
727.00	443.92
728.00	432.22
729.00	424.42
730.00	409.59
731.00	406.47
732.00	396.33
733.00	410.37
734.00	409.59
735.00	410.37
736.00	385.41
737.00	386.97
738.00	361.22
739.00	366.68
740.00	368.24
741.00	393.99
742.00	404.13
743.00	441.58
744.00	470.45
745.00	471.23
746.00	395.55
747.00	356.54
748.00	333.14
749.00	354.20
750.00	368.24
751.00	373.71
752.00	408.03
753.00	411.93
754.00	420.52
755.00	412.71
756.00	410.37
757.00	412.71
758.00	415.06
759.00	403.35
760.00	403.35
761.00	357.32
762.00	368.24
763.00	369.80
764.00	400.23
765.00	411.15
766.00	407.25
767.00	415.06
768.00	398.67
769.00	362.78
770.00	362.00
771.00	371.36
772.00	404.91
773.00	415.84
774.00	422.08
775.00	419.74
776.00	391.65
777.00	383.07
778.00	396.33
779.00	419.74
780.00	433.00
781.00	437.68
782.00	441.58
783.00	504.78
784.00	479.03
785.00	457.96
786.00	372.93
787.00	393.21
788.00	388.53
789.00	393.99
790.00	386.19
791.00	412.71
792.00	414.27
793.00	422.08
794.00	391.65
795.00	393.99
796.00	358.88
797.00	354.20
798.00	335.48
799.00	351.86
800.00	369.80
801.00	390.09
802.00	407.25
803.00	420.52
804.00	415.06
805.00	395.55
806.00	385.41
807.00	398.67
808.00	398.67
809.00	408.03
810.00	431.44
811.00	428.32
812.00	415.84
813.00	386.97
814.00	411.93
815.00	418.96
816.00	433.78
817.00	419.74
818.00	402.57
819.00	398.67
820.00	396.33
821.00	406.47
822.00	393.21
823.00	404.91
824.00	388.53
825.00	376.05
826.00	375.27
827.00	383.85
828.00	393.21
829.00	408.03
830.00	450.16
831.00	428.32
832.00	399.45
833.00	363.56
834.00	364.34
835.00	366.68
836.00	363.56
837.00	375.27
838.00	362.78
839.00	357.32
840.00	364.34
841.00	375.27
842.00	415.06
843.00	423.64
844.00	449.38
845.00	418.96
846.00	418.96
847.00	393.21
848.00	406.47
849.00	430.66
850.00	431.44
851.00	408.81
852.00	369.02
853.00	386.19
854.00	392.43
855.00	414.27
856.00	402.57
857.00	402.57
858.00	388.53
859.00	379.17
860.00	376.83
861.00	386.97
862.00	409.59
863.00	419.74
864.00	403.35
865.00	404.13
866.00	403.35
867.00	396.33
868.00	392.43
869.00	390.87
870.00	427.54
871.00	419.74
872.00	413.49
873.00	415.84
874.00	418.18
875.00	441.58
876.00	415.06
877.00	390.87
878.00	391.65
879.00	397.11
880.00	440.02
881.00	437.68
882.00	425.98
883.00	404.91
884.00	388.53
885.00	416.62
886.00	418.96
887.00	429.10
888.00	404.13
889.00	411.93
890.00	390.87
891.00	398.67
892.00	404.13
893.00	398.67
894.00	393.21
895.00	382.29
896.00	410.37
897.00	413.49
898.00	415.84
899.00	432.22
900.00	419.74
901.00	400.23
902.00	369.80
903.00	398.67
904.00	405.69
905.00	403.35
906.00	376.83
907.00	355.76
908.00	347.96
909.00	699.82
910.00	754.43
911.00	773.16
912.00	418.18
913.00	377.61
914.00	386.19
915.00	408.03
916.00	398.67
917.00	402.57
918.00	409.59
919.00	418.18
920.00	386.19
921.00	375.27
922.00	378.39
923.00	397.11
924.00	408.81
925.00	420.52
926.00	416.62
927.00	405.69
928.00	390.09
929.00	393.99
930.00	400.23
931.00	406.47
932.00	387.75
933.00	367.46
934.00	384.63
935.00	399.45
936.00	386.19
937.00	393.21
938.00	386.19
939.00	393.21
940.00	369.02
941.00	376.83
942.00	385.41
943.00	407.25
944.00	422.08
945.00	428.32
946.00	429.10
947.00	421.30
948.00	425.20
949.00	409.59
950.00	407.25
951.00	414.27
952.00	399.45
953.00	370.58
954.00	370.58
955.00	395.55
956.00	425.98
957.00	420.52
958.00	422.86
959.00	421.30
960.00	411.93
961.00	404.91
962.00	422.08
963.00	443.92
964.00	463.43
965.00	444.70
966.00	433.00
967.00	411.15
968.00	406.47
969.00	404.13
970.00	396.33
971.00	392.43
972.00	383.07
973.00	379.95
974.00	404.13
975.00	409.59
976.00	418.96
977.00	374.49
978.00	397.89
979.00	388.53
980.00	408.81
981.00	394.77
982.00	401.01
983.00	408.81
984.00	385.41
985.00	382.29
986.00	363.56
987.00	387.75
988.00	393.99
989.00	420.52
990.00	427.54
991.00	408.03
992.00	385.41
993.00	373.71
994.00	395.55
995.00	403.35
996.00	417.40
997.00	414.27
998.00	390.87
999.00	383.07
1000.00	411.15
1001.00	437.68
1002.00	455.62
1003.00	422.08
1004.00	422.08
1005.00	396.33
1006.00	386.19
1007.00	376.83
1008.00	375.27
1009.00	415.06
1010.00	462.65
1011.00	483.71
1012.00	474.35
1013.00	418.96
1014.00	398.67
1015.00	384.63
1016.00	381.51
1017.00	384.63
1018.00	354.98
1019.00	375.27
1020.00	378.39
1021.00	399.45
1022.00	400.23
1023.00	390.87
1024.00	389.31
1025.00	404.91
1026.00	417.40
1027.00	435.34
1028.00	418.18
1029.00	415.06
1030.00	418.96
1031.00	418.96
1032.00	423.64
1033.00	425.20
1034.00	406.47
1035.00	392.43
1036.00	390.87
1037.00	414.27
1038.00	393.99
1039.00	392.43
1040.00	411.15
1041.00	441.58
1042.00	415.06
1043.00	370.58
1044.00	350.30
1045.00	393.99
1046.00	431.44
1047.00	439.24
1048.00	400.23
1049.00	376.05
1050.00	395.55
1051.00	397.89
1052.00	401.01
1053.00	384.63
1054.00	386.97
1055.00	387.75
1056.00	380.73
1057.00	412.71
1058.00	417.40
1059.00	412.71
1060.00	397.11
1061.00	372.15
1062.00	365.12
1063.00	376.05
1064.00	404.13
1065.00	440.80
1066.00	407.25
1067.00	422.08
1068.00	417.40
1069.00	419.74
1070.00	393.21
1071.00	397.11
1072.00	416.62
1073.00	429.88
1074.00	434.56
1075.00	437.68
1076.00	453.28
1077.00	408.03
1078.00	376.05
1079.00	369.02
1080.00	385.41
1081.00	404.13
1082.00	383.07
1083.00	389.31
1084.00	377.61
1085.00	376.05
1086.00	391.65
1087.00	415.84
1088.00	429.88
1089.00	422.86
1090.00	395.55
1091.00	405.69
1092.00	408.81
1093.00	404.91
1094.00	376.05
1095.00	353.42
1096.00	379.17
1097.00	415.84
1098.00	411.15
1099.00	391.65
1100.00	382.29
1101.00	388.53
1102.00	404.13
1103.00	395.55
1104.00	429.10
1105.00	422.86
1106.00	415.06
1107.00	402.57
1108.00	395.55
1109.00	405.69
1110.00	393.99
1111.00	395.55
1112.00	383.85
1113.00	381.51
1114.00	390.09
1115.00	409.59
1116.00	411.93
1117.00	399.45
1118.00	379.95
1119.00	374.49
1120.00	364.34
1121.00	381.51
1122.00	429.88
1123.00	472.01
1124.00	464.21
1125.00	401.01
1126.00	379.17
1127.00	387.75
1128.00	416.62
1129.00	436.90
1130.00	448.60
1131.00	443.92
1132.00	420.52
1133.00	397.11
1134.00	388.53
1135.00	397.89
1136.00	419.74
1137.00	427.54
1138.00	414.27
1139.00	400.23
1140.00	396.33
1141.00	398.67
1142.00	401.01
1143.00	425.20
1144.00	444.70
1145.00	428.32
1146.00	423.64
1147.00	409.59
1148.00	447.82
1149.00	426.76
1150.00	454.84
1151.00	462.65
1152.00	459.53
1153.00	433.78
1154.00	392.43
1155.00	409.59
1156.00	387.75
1157.00	380.73
1158.00	368.24
1159.00	394.77
1160.00	392.43
1161.00	384.63
1162.00	360.44
1163.00	380.73
1164.00	397.89
1165.00	422.08
1166.00	422.08
1167.00	422.08
1168.00	401.79
1169.00	420.52
1170.00	405.69
1171.00	418.18
1172.00	400.23
1173.00	401.79
1174.00	409.59
1175.00	424.42
1176.00	476.69
1177.00	482.15
1178.00	470.45
1179.00	414.27
1180.00	425.20
1181.00	414.27
1182.00	425.98
1183.00	423.64
1184.00	436.12
1185.00	435.34
1186.00	413.49
1187.00	413.49
1188.00	409.59
1189.00	420.52
1190.00	413.49
1191.00	438.46
1192.00	420.52
1193.00	407.25
1194.00	385.41
1195.00	387.75
1196.00	385.41
1197.00	392.43
1198.00	394.77
1199.00	432.22
1200.00	436.12
1201.00	450.16
1202.00	432.22
1203.00	424.42
1204.00	411.15
1205.00	395.55
1206.00	414.27
1207.00	417.40
1208.00	437.68
1209.00	422.08
1210.00	460.31
1211.00	454.84
1212.00	453.28
1213.00	415.84
1214.00	416.62
1215.00	422.08
1216.00	433.78
1217.00	440.80
1218.00	429.88
1219.00	425.98
1220.00	420.52
1221.00	412.71
1222.00	395.55
1223.00	369.80
1224.00	392.43
1225.00	411.93
1226.00	418.18
1227.00	408.03
1228.00	411.93
1229.00	418.18
1230.00	400.23
1231.00	393.99
1232.00	405.69
1233.00	419.74
1234.00	431.44
1235.00	425.20
1236.00	421.30
1237.00	415.84
1238.00	414.27
1239.00	431.44
1240.00	410.37
1241.00	415.84
1242.00	416.62
1243.00	404.91
1244.00	383.07
1245.00	375.27
1246.00	379.95
1247.00	391.65
1248.00	396.33
1249.00	406.47
1250.00	417.40
1251.00	418.96
1252.00	434.56
1253.00	437.68
1254.00	417.40
1255.00	410.37
1256.00	397.11
1257.00	409.59
1258.00	408.03
1259.00	402.57
1260.00	423.64
1261.00	408.81
1262.00	403.35
1263.00	375.27
1264.00	386.19
1265.00	386.19
1266.00	405.69
1267.00	419.74
1268.00	455.62
1269.00	436.12
1270.00	429.10
1271.00	411.93
1272.00	422.86
1273.00	416.62
1274.00	411.93
1275.00	401.01
1276.00	399.45
1277.00	388.53
1278.00	386.19
1279.00	376.83
1280.00	376.05
1281.00	387.75
1282.00	393.21
1283.00	404.13
1284.00	414.27
1285.00	423.64
1286.00	418.18
1287.00	418.96
1288.00	427.54
1289.00	423.64
1290.00	411.93
1291.00	383.07
1292.00	393.21
1293.00	382.29
1294.00	397.89
1295.00	392.43
1296.00	411.15
1297.00	430.66
1298.00	429.88
1299.00	415.84
1300.00	404.91
1301.00	417.40
1302.00	432.22
1303.00	443.14
1304.00	449.38
1305.00	440.02
1306.00	426.76
1307.00	396.33
1308.00	407.25
1309.00	399.45
1310.00	405.69
1311.00	391.65
1312.00	424.42
1313.00	438.46
1314.00	456.40
1315.00	406.47
1316.00	361.22
1317.00	386.97
1318.00	422.08
1319.00	475.13
1320.00	441.58
1321.00	422.08
1322.00	429.88
1323.00	417.40
1324.00	425.20
1325.00	420.52
1326.00	443.92
1327.00	447.04
1328.00	435.34
1329.00	422.08
1330.00	422.08
1331.00	457.18
1332.00	462.65
1333.00	468.89
1334.00	426.76
1335.00	429.88
1336.00	430.66
1337.00	436.90
1338.00	422.86
1339.00	420.52
1340.00	421.30
1341.00	413.49
1342.00	414.27
1343.00	401.79
1344.00	396.33
1345.00	404.13
1346.00	419.74
1347.00	416.62
1348.00	399.45
1349.00	390.09
1350.00	383.85
1351.00	378.39
1352.00	386.19
1353.00	417.40
1354.00	418.18
1355.00	411.15
1356.00	404.91
1357.00	397.89
1358.00	398.67
1359.00	395.55
1360.00	393.21
1361.00	376.05
1362.00	384.63
1363.00	407.25
1364.00	438.46
1365.00	427.54
