SpectraSuite Data File
++++++++++++++++++++++++++++++++++++
Date: Thu Nov 16 14:27:26 EST 2017
User: cheriyan
Dark Spectrum Present: No
Reference Spectrum Present: No
Number of Sampled Component Spectra: 1
Spectrometers: USB2+H05261
Integration Time (usec): 100000 (USB2+H05261)
Spectra Averaged: 1 (USB2+H05261)
Boxcar Smoothing: 1 (USB2+H05261)
Correct for Electrical Dark: No (USB2+H05261)
Strobe/Lamp Enabled: No (USB2+H05261)
Correct for Detector Non-linearity: No (USB2+H05261)
Correct for Stray Light: No (USB2+H05261)
Number of Pixels in Processed Spectrum: 2048
>>>>>Begin Processed Spectral Data<<<<<
0.00	355.76
1.00	355.76
2.00	314.41
3.00	278.52
4.00	243.42
5.00	229.37
6.00	232.49
7.00	197.39
8.00	170.86
9.00	160.72
10.00	173.20
11.00	188.02
12.00	173.20
13.00	165.40
14.00	198.95
15.00	205.97
16.00	239.51
17.00	241.86
18.00	241.86
19.00	261.36
20.00	262.92
21.00	288.67
22.00	282.42
23.00	304.27
24.00	301.15
25.00	322.21
26.00	333.14
27.00	394.77
28.00	386.19
29.00	390.09
30.00	362.78
31.00	374.49
32.00	372.15
33.00	347.18
34.00	354.98
35.00	374.49
36.00	414.27
37.00	429.88
38.00	408.03
39.00	397.89
40.00	366.68
41.00	388.53
42.00	405.69
43.00	431.44
44.00	412.71
45.00	379.95
46.00	368.24
47.00	379.95
48.00	410.37
49.00	402.57
50.00	394.77
51.00	367.46
52.00	387.75
53.00	381.51
54.00	397.11
55.00	378.39
56.00	380.73
57.00	369.80
58.00	369.02
59.00	381.51
60.00	394.77
61.00	398.67
62.00	382.29
63.00	362.78
64.00	352.64
65.00	365.12
66.00	360.44
67.00	371.36
68.00	358.10
69.00	356.54
70.00	364.34
71.00	386.19
72.00	418.96
73.00	393.21
74.00	354.20
75.00	337.82
76.00	358.10
77.00	381.51
78.00	389.31
79.00	395.55
80.00	409.59
81.00	387.75
82.00	386.97
83.00	379.95
84.00	392.43
85.00	365.12
86.00	357.32
87.00	373.71
88.00	411.93
89.00	415.06
90.00	426.76
91.00	425.20
92.00	415.84
93.00	401.01
94.00	392.43
95.00	404.13
96.00	402.57
97.00	394.77
98.00	418.18
99.00	407.25
100.00	411.15
101.00	387.75
102.00	378.39
103.00	373.71
104.00	365.12
105.00	362.00
106.00	359.66
107.00	350.30
108.00	372.93
109.00	388.53
110.00	396.33
111.00	386.97
112.00	376.05
113.00	381.51
114.00	399.45
115.00	397.89
116.00	411.15
117.00	386.19
118.00	378.39
119.00	371.36
120.00	367.46
121.00	374.49
122.00	366.68
123.00	386.19
124.00	386.19
125.00	401.01
126.00	396.33
127.00	404.13
128.00	384.63
129.00	401.79
130.00	401.01
131.00	404.13
132.00	384.63
133.00	407.25
134.00	411.93
135.00	420.52
136.00	386.97
137.00	393.99
138.00	373.71
139.00	390.87
140.00	363.56
141.00	359.66
142.00	334.70
143.00	347.96
144.00	378.39
145.00	371.36
146.00	376.83
147.00	362.78
148.00	399.45
149.00	409.59
150.00	408.03
151.00	377.61
152.00	367.46
153.00	384.63
154.00	398.67
155.00	396.33
156.00	352.64
157.00	353.42
158.00	365.12
159.00	376.83
160.00	358.88
161.00	368.24
162.00	395.55
163.00	396.33
164.00	367.46
165.00	354.98
166.00	369.02
167.00	410.37
168.00	427.54
169.00	439.24
170.00	406.47
171.00	401.79
172.00	390.87
173.00	386.97
174.00	368.24
175.00	395.55
176.00	425.20
177.00	460.31
178.00	436.12
179.00	391.65
180.00	356.54
181.00	347.18
182.00	379.95
183.00	393.21
184.00	400.23
185.00	386.97
186.00	394.77
187.00	415.84
188.00	416.62
189.00	390.87
190.00	347.96
191.00	353.42
192.00	368.24
193.00	408.81
194.00	391.65
195.00	391.65
196.00	385.41
197.00	406.47
198.00	394.77
199.00	409.59
200.00	389.31
201.00	391.65
202.00	358.10
203.00	371.36
204.00	381.51
205.00	384.63
206.00	382.29
207.00	357.32
208.00	358.10
209.00	333.14
210.00	357.32
211.00	337.82
212.00	362.00
213.00	353.42
214.00	384.63
215.00	376.83
216.00	385.41
217.00	380.73
218.00	393.99
219.00	387.75
220.00	392.43
221.00	380.73
222.00	386.97
223.00	397.89
224.00	394.77
225.00	364.34
226.00	353.42
227.00	358.10
228.00	393.99
229.00	373.71
230.00	383.07
231.00	393.99
232.00	409.59
233.00	422.86
234.00	408.81
235.00	386.19
236.00	384.63
237.00	374.49
238.00	396.33
239.00	402.57
240.00	407.25
241.00	426.76
242.00	393.21
243.00	399.45
244.00	362.78
245.00	390.87
246.00	393.21
247.00	386.19
248.00	367.46
249.00	370.58
250.00	395.55
251.00	390.09
252.00	388.53
253.00	408.03
254.00	416.62
255.00	397.89
256.00	389.31
257.00	404.91
258.00	434.56
259.00	429.10
260.00	407.25
261.00	383.85
262.00	403.35
263.00	417.40
264.00	424.42
265.00	397.89
266.00	376.05
267.00	407.25
268.00	422.86
269.00	441.58
270.00	412.71
271.00	386.19
272.00	379.95
273.00	355.76
274.00	365.90
275.00	340.16
276.00	364.34
277.00	362.78
278.00	390.87
279.00	394.77
280.00	412.71
281.00	434.56
282.00	418.96
283.00	411.93
284.00	407.25
285.00	410.37
286.00	396.33
287.00	385.41
288.00	382.29
289.00	374.49
290.00	354.98
291.00	360.44
292.00	354.20
293.00	370.58
294.00	388.53
295.00	427.54
296.00	419.74
297.00	411.15
298.00	399.45
299.00	411.93
300.00	391.65
301.00	369.02
302.00	357.32
303.00	366.68
304.00	374.49
305.00	371.36
306.00	376.05
307.00	386.19
308.00	397.89
309.00	394.77
310.00	390.09
311.00	382.29
312.00	391.65
313.00	411.15
314.00	418.96
315.00	407.25
316.00	412.71
317.00	393.99
318.00	386.97
319.00	364.34
320.00	391.65
321.00	391.65
322.00	399.45
323.00	379.95
324.00	377.61
325.00	362.78
326.00	364.34
327.00	380.73
328.00	377.61
329.00	375.27
330.00	340.94
331.00	353.42
332.00	365.90
333.00	393.21
334.00	388.53
335.00	390.09
336.00	406.47
337.00	419.74
338.00	420.52
339.00	403.35
340.00	430.66
341.00	439.24
342.00	450.94
343.00	415.06
344.00	391.65
345.00	402.57
346.00	418.18
347.00	411.15
348.00	409.59
349.00	365.90
350.00	395.55
351.00	399.45
352.00	460.31
353.00	463.43
354.00	464.21
355.00	440.02
356.00	438.46
357.00	429.88
358.00	412.71
359.00	400.23
360.00	399.45
361.00	414.27
362.00	425.20
363.00	422.86
364.00	431.44
365.00	404.91
366.00	404.13
367.00	386.97
368.00	422.08
369.00	410.37
370.00	388.53
371.00	354.20
372.00	362.00
373.00	368.24
374.00	377.61
375.00	358.88
376.00	391.65
377.00	382.29
378.00	380.73
379.00	356.54
380.00	362.00
381.00	369.02
382.00	389.31
383.00	419.74
384.00	424.42
385.00	403.35
386.00	377.61
387.00	366.68
388.00	333.92
389.00	332.36
390.00	358.10
391.00	395.55
392.00	383.07
393.00	359.66
394.00	339.38
395.00	369.80
396.00	400.23
397.00	419.74
398.00	377.61
399.00	359.66
400.00	361.22
401.00	382.29
402.00	386.97
403.00	365.90
404.00	383.07
405.00	393.21
406.00	429.88
407.00	429.10
408.00	417.40
409.00	427.54
410.00	427.54
411.00	418.96
412.00	400.23
413.00	384.63
414.00	415.06
415.00	418.96
416.00	432.22
417.00	406.47
418.00	391.65
419.00	395.55
420.00	389.31
421.00	408.03
422.00	411.93
423.00	422.08
424.00	397.89
425.00	376.05
426.00	369.02
427.00	397.11
428.00	421.30
429.00	434.56
430.00	423.64
431.00	395.55
432.00	373.71
433.00	387.75
434.00	418.96
435.00	438.46
436.00	431.44
437.00	407.25
438.00	400.23
439.00	387.75
440.00	399.45
441.00	404.91
442.00	412.71
443.00	420.52
444.00	423.64
445.00	407.25
446.00	395.55
447.00	387.75
448.00	393.21
449.00	386.19
450.00	382.29
451.00	373.71
452.00	387.75
453.00	396.33
454.00	383.85
455.00	390.09
456.00	395.55
457.00	419.74
458.00	376.83
459.00	375.27
460.00	358.88
461.00	386.19
462.00	372.15
463.00	369.80
464.00	385.41
465.00	396.33
466.00	432.22
467.00	415.84
468.00	419.74
469.00	391.65
470.00	379.95
471.00	381.51
472.00	387.75
473.00	411.15
474.00	413.49
475.00	416.62
476.00	402.57
477.00	398.67
478.00	406.47
479.00	446.26
480.00	450.94
481.00	442.36
482.00	401.01
483.00	393.21
484.00	404.91
485.00	417.40
486.00	422.86
487.00	404.13
488.00	405.69
489.00	408.03
490.00	415.06
491.00	398.67
492.00	402.57
493.00	414.27
494.00	423.64
495.00	398.67
496.00	379.95
497.00	373.71
498.00	392.43
499.00	390.87
500.00	393.21
501.00	401.79
502.00	415.06
503.00	408.81
504.00	376.05
505.00	357.32
506.00	372.15
507.00	392.43
508.00	443.14
509.00	437.68
510.00	436.12
511.00	407.25
512.00	418.18
513.00	430.66
514.00	429.88
515.00	415.84
516.00	411.93
517.00	408.03
518.00	418.96
519.00	422.86
520.00	426.76
521.00	402.57
522.00	399.45
523.00	415.84
524.00	422.08
525.00	408.03
526.00	385.41
527.00	398.67
528.00	392.43
529.00	386.97
530.00	366.68
531.00	376.05
532.00	420.52
533.00	449.38
534.00	454.06
535.00	410.37
536.00	393.21
537.00	384.63
538.00	383.85
539.00	405.69
540.00	408.03
541.00	418.96
542.00	431.44
543.00	430.66
544.00	430.66
545.00	399.45
546.00	389.31
547.00	391.65
548.00	388.53
549.00	415.84
550.00	417.40
551.00	443.14
552.00	436.12
553.00	421.30
554.00	408.81
555.00	376.83
556.00	402.57
557.00	413.49
558.00	456.40
559.00	434.56
560.00	401.01
561.00	366.68
562.00	383.85
563.00	404.13
564.00	430.66
565.00	397.11
566.00	401.79
567.00	385.41
568.00	388.53
569.00	361.22
570.00	367.46
571.00	386.97
572.00	400.23
573.00	412.71
574.00	404.91
575.00	392.43
576.00	368.24
577.00	366.68
578.00	379.95
579.00	378.39
580.00	381.51
581.00	371.36
582.00	381.51
583.00	397.11
584.00	416.62
585.00	446.26
586.00	436.90
587.00	413.49
588.00	383.85
589.00	393.99
590.00	409.59
591.00	424.42
592.00	403.35
593.00	402.57
594.00	384.63
595.00	389.31
596.00	408.81
597.00	419.74
598.00	415.84
599.00	404.91
600.00	414.27
601.00	421.30
602.00	393.21
603.00	376.83
604.00	407.25
605.00	422.08
606.00	431.44
607.00	392.43
608.00	415.06
609.00	403.35
610.00	423.64
611.00	417.40
612.00	431.44
613.00	423.64
614.00	393.99
615.00	374.49
616.00	381.51
617.00	414.27
618.00	393.99
619.00	399.45
620.00	376.05
621.00	383.85
622.00	356.54
623.00	398.67
624.00	408.03
625.00	422.86
626.00	405.69
627.00	413.49
628.00	401.01
629.00	415.06
630.00	417.40
631.00	420.52
632.00	403.35
633.00	421.30
634.00	470.45
635.00	491.51
636.00	583.57
637.00	614.00
638.00	646.77
639.00	597.62
640.00	537.54
641.00	496.97
642.00	451.72
643.00	448.60
644.00	436.12
645.00	433.78
646.00	422.86
647.00	406.47
648.00	375.27
649.00	378.39
650.00	401.01
651.00	429.10
652.00	422.08
653.00	404.91
654.00	430.66
655.00	439.24
656.00	451.72
657.00	393.99
658.00	386.19
659.00	377.61
660.00	401.01
661.00	411.15
662.00	418.96
663.00	415.84
664.00	407.25
665.00	385.41
666.00	388.53
667.00	410.37
668.00	413.49
669.00	425.20
670.00	408.81
671.00	428.32
672.00	411.93
673.00	394.77
674.00	385.41
675.00	401.01
676.00	440.02
677.00	443.92
678.00	423.64
679.00	422.08
680.00	443.92
681.00	471.23
682.00	443.14
683.00	413.49
684.00	411.15
685.00	402.57
686.00	384.63
687.00	371.36
688.00	365.12
689.00	387.75
690.00	375.27
691.00	407.25
692.00	403.35
693.00	411.93
694.00	389.31
695.00	379.17
696.00	395.55
697.00	405.69
698.00	418.18
699.00	425.98
700.00	431.44
701.00	421.30
702.00	411.15
703.00	391.65
704.00	396.33
705.00	394.77
706.00	373.71
707.00	379.95
708.00	361.22
709.00	376.83
710.00	378.39
711.00	372.15
712.00	379.95
713.00	376.05
714.00	374.49
715.00	379.95
716.00	374.49
717.00	417.40
718.00	476.69
719.00	489.95
720.00	472.79
721.00	451.72
722.00	485.27
723.00	511.80
724.00	500.09
725.00	472.79
726.00	432.22
727.00	395.55
728.00	375.27
729.00	364.34
730.00	385.41
731.00	401.01
732.00	418.96
733.00	410.37
734.00	401.79
735.00	390.09
736.00	393.99
737.00	401.79
738.00	428.32
739.00	438.46
740.00	412.71
741.00	376.83
742.00	369.02
743.00	422.08
744.00	443.92
745.00	464.21
746.00	416.62
747.00	436.90
748.00	429.10
749.00	433.78
750.00	428.32
751.00	429.88
752.00	436.12
753.00	430.66
754.00	404.91
755.00	383.85
756.00	370.58
757.00	387.75
758.00	392.43
759.00	379.95
760.00	382.29
761.00	404.13
762.00	424.42
763.00	436.12
764.00	431.44
765.00	425.20
766.00	388.53
767.00	408.03
768.00	408.03
769.00	411.15
770.00	395.55
771.00	383.85
772.00	401.01
773.00	394.77
774.00	408.81
775.00	409.59
776.00	394.77
777.00	406.47
778.00	429.88
779.00	452.50
780.00	461.09
781.00	411.93
782.00	414.27
783.00	455.62
784.00	481.37
785.00	470.45
786.00	395.55
787.00	383.85
788.00	386.97
789.00	365.90
790.00	383.07
791.00	385.41
792.00	415.06
793.00	389.31
794.00	394.77
795.00	388.53
796.00	434.56
797.00	429.88
798.00	418.18
799.00	387.75
800.00	359.66
801.00	369.02
802.00	367.46
803.00	379.17
804.00	372.15
805.00	372.15
806.00	386.97
807.00	393.21
808.00	414.27
809.00	408.03
810.00	440.02
811.00	410.37
812.00	393.99
813.00	380.73
814.00	386.19
815.00	402.57
816.00	381.51
817.00	379.17
818.00	380.73
819.00	409.59
820.00	418.96
821.00	440.80
822.00	454.06
823.00	463.43
824.00	462.65
825.00	445.48
826.00	436.12
827.00	422.86
828.00	422.86
829.00	418.18
830.00	440.02
831.00	414.27
832.00	400.23
833.00	377.61
834.00	394.77
835.00	414.27
836.00	406.47
837.00	416.62
838.00	411.15
839.00	440.02
840.00	413.49
841.00	404.13
842.00	388.53
843.00	408.03
844.00	413.49
845.00	421.30
846.00	428.32
847.00	436.90
848.00	418.96
849.00	406.47
850.00	388.53
851.00	368.24
852.00	369.02
853.00	388.53
854.00	384.63
855.00	353.42
856.00	343.28
857.00	365.90
858.00	405.69
859.00	377.61
860.00	380.73
861.00	366.68
862.00	397.89
863.00	380.73
864.00	379.95
865.00	386.19
866.00	412.71
867.00	425.98
868.00	420.52
869.00	407.25
870.00	396.33
871.00	382.29
872.00	392.43
873.00	386.97
874.00	401.01
875.00	385.41
876.00	389.31
877.00	367.46
878.00	373.71
879.00	352.64
880.00	370.58
881.00	357.32
882.00	396.33
883.00	419.74
884.00	429.10
885.00	440.80
886.00	420.52
887.00	431.44
888.00	409.59
889.00	422.08
890.00	401.01
891.00	376.05
892.00	358.88
893.00	371.36
894.00	402.57
895.00	435.34
896.00	443.92
897.00	406.47
898.00	371.36
899.00	360.44
900.00	383.07
901.00	393.21
902.00	386.19
903.00	389.31
904.00	401.01
905.00	405.69
906.00	418.96
907.00	407.25
908.00	411.93
909.00	772.38
910.00	791.10
911.00	774.72
912.00	393.99
913.00	385.41
914.00	390.09
915.00	385.41
916.00	388.53
917.00	416.62
918.00	415.84
919.00	405.69
920.00	396.33
921.00	415.06
922.00	402.57
923.00	400.23
924.00	398.67
925.00	390.87
926.00	369.80
927.00	379.17
928.00	382.29
929.00	401.01
930.00	384.63
931.00	393.21
932.00	393.21
933.00	392.43
934.00	397.89
935.00	402.57
936.00	422.08
937.00	404.91
938.00	412.71
939.00	401.79
940.00	404.91
941.00	386.19
942.00	356.54
943.00	390.09
944.00	396.33
945.00	441.58
946.00	433.00
947.00	438.46
948.00	429.88
949.00	419.74
950.00	413.49
951.00	400.23
952.00	372.93
953.00	363.56
954.00	369.02
955.00	407.25
956.00	397.89
957.00	402.57
958.00	403.35
959.00	442.36
960.00	431.44
961.00	405.69
962.00	383.07
963.00	400.23
964.00	409.59
965.00	418.96
966.00	421.30
967.00	430.66
968.00	438.46
969.00	424.42
970.00	428.32
971.00	399.45
972.00	387.75
973.00	380.73
974.00	390.09
975.00	386.97
976.00	382.29
977.00	386.19
978.00	390.87
979.00	396.33
980.00	410.37
981.00	436.12
982.00	454.84
983.00	428.32
984.00	413.49
985.00	376.05
986.00	408.81
987.00	394.77
988.00	422.86
989.00	404.91
990.00	403.35
991.00	367.46
992.00	376.83
993.00	370.58
994.00	384.63
995.00	375.27
996.00	385.41
997.00	388.53
998.00	382.29
999.00	396.33
1000.00	393.99
1001.00	388.53
1002.00	355.76
1003.00	364.34
1004.00	355.76
1005.00	403.35
1006.00	422.08
1007.00	464.99
1008.00	469.67
1009.00	480.59
1010.00	491.51
1011.00	466.55
1012.00	469.67
1013.00	457.96
1014.00	440.80
1015.00	421.30
1016.00	418.96
1017.00	434.56
1018.00	417.40
1019.00	389.31
1020.00	391.65
1021.00	388.53
1022.00	388.53
1023.00	401.79
1024.00	425.20
1025.00	434.56
1026.00	425.98
1027.00	390.87
1028.00	389.31
1029.00	387.75
1030.00	398.67
1031.00	428.32
1032.00	415.06
1033.00	422.86
1034.00	391.65
1035.00	401.79
1036.00	408.81
1037.00	403.35
1038.00	411.15
1039.00	408.81
1040.00	421.30
1041.00	440.80
1042.00	452.50
1043.00	435.34
1044.00	403.35
1045.00	403.35
1046.00	408.03
1047.00	417.40
1048.00	404.91
1049.00	414.27
1050.00	397.11
1051.00	383.07
1052.00	377.61
1053.00	386.19
1054.00	403.35
1055.00	396.33
1056.00	417.40
1057.00	391.65
1058.00	394.77
1059.00	358.10
1060.00	350.30
1061.00	343.28
1062.00	354.98
1063.00	359.66
1064.00	381.51
1065.00	399.45
1066.00	434.56
1067.00	436.90
1068.00	434.56
1069.00	413.49
1070.00	383.85
1071.00	379.95
1072.00	377.61
1073.00	386.97
1074.00	403.35
1075.00	404.91
1076.00	402.57
1077.00	386.97
1078.00	382.29
1079.00	413.49
1080.00	418.18
1081.00	417.40
1082.00	416.62
1083.00	409.59
1084.00	445.48
1085.00	418.18
1086.00	434.56
1087.00	408.81
1088.00	420.52
1089.00	410.37
1090.00	425.98
1091.00	407.25
1092.00	412.71
1093.00	417.40
1094.00	433.00
1095.00	431.44
1096.00	402.57
1097.00	389.31
1098.00	358.88
1099.00	364.34
1100.00	386.19
1101.00	376.05
1102.00	379.95
1103.00	373.71
1104.00	394.77
1105.00	372.93
1106.00	369.80
1107.00	383.85
1108.00	422.08
1109.00	435.34
1110.00	434.56
1111.00	414.27
1112.00	393.21
1113.00	383.85
1114.00	407.25
1115.00	390.09
1116.00	383.85
1117.00	361.22
1118.00	377.61
1119.00	401.79
1120.00	423.64
1121.00	436.12
1122.00	440.02
1123.00	431.44
1124.00	428.32
1125.00	424.42
1126.00	401.01
1127.00	401.01
1128.00	371.36
1129.00	373.71
1130.00	396.33
1131.00	394.77
1132.00	429.10
1133.00	397.11
1134.00	396.33
1135.00	353.42
1136.00	383.07
1137.00	404.91
1138.00	421.30
1139.00	401.01
1140.00	378.39
1141.00	399.45
1142.00	384.63
1143.00	393.21
1144.00	363.56
1145.00	377.61
1146.00	422.86
1147.00	447.04
1148.00	475.13
1149.00	445.48
1150.00	427.54
1151.00	388.53
1152.00	375.27
1153.00	399.45
1154.00	422.86
1155.00	445.48
1156.00	425.20
1157.00	395.55
1158.00	367.46
1159.00	351.08
1160.00	366.68
1161.00	401.79
1162.00	431.44
1163.00	444.70
1164.00	423.64
1165.00	423.64
1166.00	421.30
1167.00	414.27
1168.00	406.47
1169.00	410.37
1170.00	414.27
1171.00	392.43
1172.00	401.01
1173.00	402.57
1174.00	425.98
1175.00	418.96
1176.00	425.98
1177.00	442.36
1178.00	454.06
1179.00	425.98
1180.00	430.66
1181.00	430.66
1182.00	481.37
1183.00	480.59
1184.00	477.47
1185.00	435.34
1186.00	418.18
1187.00	404.13
1188.00	406.47
1189.00	396.33
1190.00	369.80
1191.00	388.53
1192.00	372.93
1193.00	393.21
1194.00	377.61
1195.00	406.47
1196.00	415.84
1197.00	422.86
1198.00	415.84
1199.00	405.69
1200.00	408.03
1201.00	417.40
1202.00	413.49
1203.00	437.68
1204.00	435.34
1205.00	466.55
1206.00	452.50
1207.00	446.26
1208.00	424.42
1209.00	417.40
1210.00	413.49
1211.00	389.31
1212.00	372.93
1213.00	352.64
1214.00	395.55
1215.00	404.13
1216.00	417.40
1217.00	386.97
1218.00	367.46
1219.00	359.66
1220.00	357.32
1221.00	374.49
1222.00	382.29
1223.00	379.17
1224.00	375.27
1225.00	378.39
1226.00	376.05
1227.00	384.63
1228.00	401.79
1229.00	398.67
1230.00	407.25
1231.00	413.49
1232.00	472.01
1233.00	464.21
1234.00	459.53
1235.00	427.54
1236.00	413.49
1237.00	396.33
1238.00	398.67
1239.00	422.08
1240.00	416.62
1241.00	408.03
1242.00	402.57
1243.00	415.84
1244.00	402.57
1245.00	395.55
1246.00	402.57
1247.00	398.67
1248.00	416.62
1249.00	393.99
1250.00	422.86
1251.00	401.01
1252.00	402.57
1253.00	369.80
1254.00	362.00
1255.00	369.80
1256.00	379.17
1257.00	376.83
1258.00	366.68
1259.00	366.68
1260.00	389.31
1261.00	396.33
1262.00	393.99
1263.00	379.17
1264.00	380.73
1265.00	376.05
1266.00	401.79
1267.00	417.40
1268.00	425.20
1269.00	407.25
1270.00	412.71
1271.00	411.15
1272.00	399.45
1273.00	378.39
1274.00	393.99
1275.00	419.74
1276.00	415.06
1277.00	415.84
1278.00	413.49
1279.00	429.88
1280.00	415.84
1281.00	423.64
1282.00	386.97
1283.00	383.85
1284.00	372.15
1285.00	399.45
1286.00	413.49
1287.00	388.53
1288.00	375.27
1289.00	389.31
1290.00	397.89
1291.00	405.69
1292.00	376.83
1293.00	405.69
1294.00	418.96
1295.00	417.40
1296.00	421.30
1297.00	415.84
1298.00	433.78
1299.00	422.08
1300.00	430.66
1301.00	447.82
1302.00	439.24
1303.00	429.10
1304.00	417.40
1305.00	416.62
1306.00	430.66
1307.00	406.47
1308.00	387.75
1309.00	363.56
1310.00	352.64
1311.00	383.07
1312.00	365.90
1313.00	382.29
1314.00	353.42
1315.00	357.32
1316.00	365.12
1317.00	380.73
1318.00	423.64
1319.00	425.20
1320.00	407.25
1321.00	385.41
1322.00	381.51
1323.00	399.45
1324.00	415.84
1325.00	436.12
1326.00	440.80
1327.00	419.74
1328.00	411.15
1329.00	402.57
1330.00	397.11
1331.00	420.52
1332.00	421.30
1333.00	447.82
1334.00	422.08
1335.00	417.40
1336.00	392.43
1337.00	385.41
1338.00	398.67
1339.00	432.22
1340.00	418.96
1341.00	383.85
1342.00	350.30
1343.00	369.02
1344.00	412.71
1345.00	437.68
1346.00	421.30
1347.00	418.96
1348.00	404.91
1349.00	393.21
1350.00	373.71
1351.00	372.15
1352.00	399.45
1353.00	386.19
1354.00	368.24
1355.00	381.51
1356.00	390.09
1357.00	429.10
1358.00	419.74
1359.00	411.93
1360.00	397.11
1361.00	387.75
1362.00	401.79
1363.00	400.23
1364.00	406.47
1365.00	440.02
