SpectraSuite Data File
++++++++++++++++++++++++++++++++++++
Date: Thu Nov 16 14:27:22 EST 2017
User: cheriyan
Dark Spectrum Present: No
Reference Spectrum Present: No
Number of Sampled Component Spectra: 1
Spectrometers: USB2+H05261
Integration Time (usec): 100000 (USB2+H05261)
Spectra Averaged: 1 (USB2+H05261)
Boxcar Smoothing: 1 (USB2+H05261)
Correct for Electrical Dark: No (USB2+H05261)
Strobe/Lamp Enabled: No (USB2+H05261)
Correct for Detector Non-linearity: No (USB2+H05261)
Correct for Stray Light: No (USB2+H05261)
Number of Pixels in Processed Spectrum: 2048
>>>>>Begin Processed Spectral Data<<<<<
0.00	367.46
1.00	367.46
2.00	337.04
3.00	284.77
4.00	243.42
5.00	227.03
6.00	221.57
7.00	223.91
8.00	205.19
9.00	224.69
10.00	217.67
11.00	208.31
12.00	205.19
13.00	188.02
14.00	234.83
15.00	237.95
16.00	232.49
17.00	213.77
18.00	219.23
19.00	239.51
20.00	268.38
21.00	277.74
22.00	311.29
23.00	315.19
24.00	328.46
25.00	316.75
26.00	322.21
27.00	326.89
28.00	324.55
29.00	335.48
30.00	326.11
31.00	353.42
32.00	354.98
33.00	370.58
34.00	374.49
35.00	364.34
36.00	359.66
37.00	334.70
38.00	346.40
39.00	351.08
40.00	376.05
41.00	377.61
42.00	397.11
43.00	396.33
44.00	384.63
45.00	343.28
46.00	334.70
47.00	333.14
48.00	367.46
49.00	380.73
50.00	393.21
51.00	371.36
52.00	383.07
53.00	389.31
54.00	397.11
55.00	376.05
56.00	354.98
57.00	367.46
58.00	364.34
59.00	378.39
60.00	359.66
61.00	369.80
62.00	362.00
63.00	392.43
64.00	390.87
65.00	401.01
66.00	358.88
67.00	365.12
68.00	353.42
69.00	353.42
70.00	347.18
71.00	383.07
72.00	428.32
73.00	419.74
74.00	389.31
75.00	358.88
76.00	376.83
77.00	381.51
78.00	390.87
79.00	384.63
80.00	383.85
81.00	368.24
82.00	366.68
83.00	380.73
84.00	397.89
85.00	401.01
86.00	404.13
87.00	383.07
88.00	399.45
89.00	370.58
90.00	391.65
91.00	369.80
92.00	372.15
93.00	374.49
94.00	379.17
95.00	390.87
96.00	380.73
97.00	393.21
98.00	385.41
99.00	375.27
100.00	370.58
101.00	350.30
102.00	358.10
103.00	362.78
104.00	393.99
105.00	401.79
106.00	383.07
107.00	391.65
108.00	404.91
109.00	397.11
110.00	372.93
111.00	349.52
112.00	367.46
113.00	370.58
114.00	386.97
115.00	357.32
116.00	407.25
117.00	397.89
118.00	405.69
119.00	365.12
120.00	382.29
121.00	404.91
122.00	408.03
123.00	388.53
124.00	382.29
125.00	379.95
126.00	361.22
127.00	349.52
128.00	363.56
129.00	401.79
130.00	416.62
131.00	400.23
132.00	414.27
133.00	419.74
134.00	422.08
135.00	405.69
136.00	403.35
137.00	393.21
138.00	370.58
139.00	350.30
140.00	354.98
141.00	368.24
142.00	391.65
143.00	393.99
144.00	385.41
145.00	375.27
146.00	371.36
147.00	362.78
148.00	362.78
149.00	378.39
150.00	398.67
151.00	406.47
152.00	403.35
153.00	410.37
154.00	406.47
155.00	398.67
156.00	379.95
157.00	365.90
158.00	379.95
159.00	402.57
160.00	412.71
161.00	410.37
162.00	374.49
163.00	369.02
164.00	340.16
165.00	368.24
166.00	376.05
167.00	398.67
168.00	384.63
169.00	401.79
170.00	402.57
171.00	409.59
172.00	369.02
173.00	354.20
174.00	366.68
175.00	402.57
176.00	418.96
177.00	425.98
178.00	433.00
179.00	413.49
180.00	383.85
181.00	354.98
182.00	403.35
183.00	432.22
184.00	440.02
185.00	408.81
186.00	406.47
187.00	399.45
188.00	388.53
189.00	386.19
190.00	372.15
191.00	375.27
192.00	369.80
193.00	389.31
194.00	403.35
195.00	391.65
196.00	410.37
197.00	410.37
198.00	397.11
199.00	400.23
200.00	365.90
201.00	385.41
202.00	370.58
203.00	387.75
204.00	369.02
205.00	353.42
206.00	372.15
207.00	369.80
208.00	386.19
209.00	368.24
210.00	406.47
211.00	401.01
212.00	406.47
213.00	408.03
214.00	414.27
215.00	411.93
216.00	409.59
217.00	445.48
218.00	471.23
219.00	443.14
220.00	405.69
221.00	387.75
222.00	379.95
223.00	394.77
224.00	382.29
225.00	393.99
226.00	379.95
227.00	376.05
228.00	382.29
229.00	372.93
230.00	373.71
231.00	381.51
232.00	404.91
233.00	421.30
234.00	427.54
235.00	401.79
236.00	384.63
237.00	357.32
238.00	354.98
239.00	354.20
240.00	368.24
241.00	378.39
242.00	398.67
243.00	420.52
244.00	414.27
245.00	393.21
246.00	366.68
247.00	379.95
248.00	395.55
249.00	385.41
250.00	379.95
251.00	366.68
252.00	355.76
253.00	341.72
254.00	355.76
255.00	405.69
256.00	406.47
257.00	397.89
258.00	383.07
259.00	386.19
260.00	393.21
261.00	374.49
262.00	396.33
263.00	415.06
264.00	412.71
265.00	418.96
266.00	368.24
267.00	392.43
268.00	391.65
269.00	408.03
270.00	393.99
271.00	383.85
272.00	381.51
273.00	377.61
274.00	386.97
275.00	394.77
276.00	401.01
277.00	398.67
278.00	387.75
279.00	373.71
280.00	384.63
281.00	402.57
282.00	412.71
283.00	391.65
284.00	384.63
285.00	386.19
286.00	372.15
287.00	379.95
288.00	408.03
289.00	405.69
290.00	383.07
291.00	371.36
292.00	377.61
293.00	391.65
294.00	372.15
295.00	380.73
296.00	400.23
297.00	388.53
298.00	390.87
299.00	380.73
300.00	383.07
301.00	353.42
302.00	351.86
303.00	386.19
304.00	401.79
305.00	374.49
306.00	360.44
307.00	376.05
308.00	416.62
309.00	403.35
310.00	395.55
311.00	415.84
312.00	411.93
313.00	401.01
314.00	357.32
315.00	348.74
316.00	365.12
317.00	383.07
318.00	379.17
319.00	376.05
320.00	362.00
321.00	397.89
322.00	403.35
323.00	400.23
324.00	383.85
325.00	379.17
326.00	393.99
327.00	412.71
328.00	411.93
329.00	394.77
330.00	367.46
331.00	386.97
332.00	392.43
333.00	400.23
334.00	350.30
335.00	359.66
336.00	365.12
337.00	401.79
338.00	385.41
339.00	380.73
340.00	376.83
341.00	397.11
342.00	412.71
343.00	411.15
344.00	414.27
345.00	390.87
346.00	389.31
347.00	370.58
348.00	367.46
349.00	358.10
350.00	354.98
351.00	389.31
352.00	420.52
353.00	442.36
354.00	409.59
355.00	387.75
356.00	365.90
357.00	380.73
358.00	378.39
359.00	393.21
360.00	381.51
361.00	391.65
362.00	408.81
363.00	411.93
364.00	414.27
365.00	405.69
366.00	410.37
367.00	419.74
368.00	464.99
369.00	469.67
370.00	437.68
371.00	392.43
372.00	365.12
373.00	358.88
374.00	340.16
375.00	350.30
376.00	352.64
377.00	349.52
378.00	349.52
379.00	367.46
380.00	372.93
381.00	376.83
382.00	379.17
383.00	399.45
384.00	405.69
385.00	405.69
386.00	383.07
387.00	377.61
388.00	367.46
389.00	373.71
390.00	365.12
391.00	382.29
392.00	379.17
393.00	396.33
394.00	392.43
395.00	420.52
396.00	425.20
397.00	409.59
398.00	378.39
399.00	365.12
400.00	373.71
401.00	391.65
402.00	408.81
403.00	401.79
404.00	404.13
405.00	424.42
406.00	439.24
407.00	415.06
408.00	385.41
409.00	390.09
410.00	385.41
411.00	375.27
412.00	365.12
413.00	351.08
414.00	371.36
415.00	371.36
416.00	404.13
417.00	380.73
418.00	369.80
419.00	351.86
420.00	358.88
421.00	356.54
422.00	369.02
423.00	366.68
424.00	366.68
425.00	379.17
426.00	383.85
427.00	388.53
428.00	391.65
429.00	396.33
430.00	422.86
431.00	411.93
432.00	396.33
433.00	379.17
434.00	365.90
435.00	397.11
436.00	393.21
437.00	429.88
438.00	396.33
439.00	416.62
440.00	390.87
441.00	445.48
442.00	453.28
443.00	474.35
444.00	440.02
445.00	414.27
446.00	396.33
447.00	378.39
448.00	375.27
449.00	371.36
450.00	385.41
451.00	404.13
452.00	413.49
453.00	416.62
454.00	409.59
455.00	417.40
456.00	414.27
457.00	401.79
458.00	379.17
459.00	369.80
460.00	364.34
461.00	362.00
462.00	392.43
463.00	404.13
464.00	415.84
465.00	395.55
466.00	379.95
467.00	369.02
468.00	375.27
469.00	398.67
470.00	423.64
471.00	412.71
472.00	401.79
473.00	404.91
474.00	429.88
475.00	427.54
476.00	379.95
477.00	364.34
478.00	369.80
479.00	397.89
480.00	401.01
481.00	413.49
482.00	426.76
483.00	410.37
484.00	404.13
485.00	399.45
486.00	393.21
487.00	357.32
488.00	352.64
489.00	358.88
490.00	401.79
491.00	411.15
492.00	428.32
493.00	420.52
494.00	406.47
495.00	396.33
496.00	386.19
497.00	404.13
498.00	393.21
499.00	382.29
500.00	357.32
501.00	377.61
502.00	391.65
503.00	403.35
504.00	405.69
505.00	409.59
506.00	440.80
507.00	415.06
508.00	415.06
509.00	369.02
510.00	405.69
511.00	405.69
512.00	436.12
513.00	410.37
514.00	394.77
515.00	354.98
516.00	369.80
517.00	376.83
518.00	411.15
519.00	386.97
520.00	382.29
521.00	348.74
522.00	354.20
523.00	331.58
524.00	358.10
525.00	381.51
526.00	415.84
527.00	410.37
528.00	386.19
529.00	354.20
530.00	337.82
531.00	332.36
532.00	369.02
533.00	397.11
534.00	430.66
535.00	378.39
536.00	384.63
537.00	399.45
538.00	436.12
539.00	418.96
540.00	382.29
541.00	389.31
542.00	408.03
543.00	437.68
544.00	446.26
545.00	411.93
546.00	404.91
547.00	414.27
548.00	436.12
549.00	418.18
550.00	386.19
551.00	366.68
552.00	374.49
553.00	369.80
554.00	378.39
555.00	383.85
556.00	411.15
557.00	409.59
558.00	383.07
559.00	365.12
560.00	357.32
561.00	410.37
562.00	425.98
563.00	433.00
564.00	406.47
565.00	397.11
566.00	409.59
567.00	403.35
568.00	390.09
569.00	369.80
570.00	349.52
571.00	359.66
572.00	381.51
573.00	418.96
574.00	414.27
575.00	411.15
576.00	381.51
577.00	385.41
578.00	369.02
579.00	365.12
580.00	384.63
581.00	382.29
582.00	389.31
583.00	397.11
584.00	409.59
585.00	422.86
586.00	397.11
587.00	414.27
588.00	404.91
589.00	419.74
590.00	394.77
591.00	401.01
592.00	366.68
593.00	383.85
594.00	373.71
595.00	388.53
596.00	375.27
597.00	351.86
598.00	354.98
599.00	383.85
600.00	401.79
601.00	389.31
602.00	369.80
603.00	384.63
604.00	396.33
605.00	400.23
606.00	394.77
607.00	403.35
608.00	393.21
609.00	382.29
610.00	390.09
611.00	396.33
612.00	408.81
613.00	383.07
614.00	382.29
615.00	384.63
616.00	404.13
617.00	393.21
618.00	389.31
619.00	405.69
620.00	414.27
621.00	408.03
622.00	386.19
623.00	383.07
624.00	372.15
625.00	397.11
626.00	390.09
627.00	408.81
628.00	392.43
629.00	419.74
630.00	422.86
631.00	429.10
632.00	418.96
633.00	412.71
634.00	394.77
635.00	407.25
636.00	445.48
637.00	454.84
638.00	451.72
639.00	432.22
640.00	413.49
641.00	414.27
642.00	391.65
643.00	386.97
644.00	370.58
645.00	385.41
646.00	393.99
647.00	409.59
648.00	380.73
649.00	399.45
650.00	395.55
651.00	411.93
652.00	408.03
653.00	389.31
654.00	427.54
655.00	412.71
656.00	400.23
657.00	358.10
658.00	364.34
659.00	372.15
660.00	365.90
661.00	369.02
662.00	395.55
663.00	390.09
664.00	379.95
665.00	371.36
666.00	379.17
667.00	394.77
668.00	390.87
669.00	406.47
670.00	415.84
671.00	415.06
672.00	406.47
673.00	396.33
674.00	416.62
675.00	422.08
676.00	423.64
677.00	412.71
678.00	416.62
679.00	407.25
680.00	401.01
681.00	390.87
682.00	390.87
683.00	365.90
684.00	364.34
685.00	381.51
686.00	408.81
687.00	410.37
688.00	406.47
689.00	386.97
690.00	371.36
691.00	358.10
692.00	372.93
693.00	379.17
694.00	394.77
695.00	390.09
696.00	409.59
697.00	387.75
698.00	386.97
699.00	386.97
700.00	413.49
701.00	383.07
702.00	362.00
703.00	351.08
704.00	367.46
705.00	398.67
706.00	386.97
707.00	401.79
708.00	392.43
709.00	392.43
710.00	385.41
711.00	389.31
712.00	411.93
713.00	418.96
714.00	400.23
715.00	387.75
716.00	408.03
717.00	428.32
718.00	493.07
719.00	472.01
720.00	461.87
721.00	402.57
722.00	410.37
723.00	420.52
724.00	424.42
725.00	428.32
726.00	418.18
727.00	404.91
728.00	415.06
729.00	418.96
730.00	415.84
731.00	377.61
732.00	365.12
733.00	362.78
734.00	376.05
735.00	388.53
736.00	392.43
737.00	390.09
738.00	422.86
739.00	431.44
740.00	448.60
741.00	405.69
742.00	401.01
743.00	398.67
744.00	401.79
745.00	376.83
746.00	366.68
747.00	364.34
748.00	394.77
749.00	398.67
750.00	445.48
751.00	418.96
752.00	397.11
753.00	362.00
754.00	381.51
755.00	399.45
756.00	398.67
757.00	383.07
758.00	382.29
759.00	379.17
760.00	401.01
761.00	376.83
762.00	350.30
763.00	356.54
764.00	388.53
765.00	411.15
766.00	398.67
767.00	400.23
768.00	397.11
769.00	362.00
770.00	362.78
771.00	363.56
772.00	393.21
773.00	376.05
774.00	344.06
775.00	343.28
776.00	368.24
777.00	401.01
778.00	408.81
779.00	406.47
780.00	397.11
781.00	398.67
782.00	411.15
783.00	516.48
784.00	518.82
785.00	482.93
786.00	409.59
787.00	399.45
788.00	401.01
789.00	364.34
790.00	379.95
791.00	386.19
792.00	414.27
793.00	411.93
794.00	415.06
795.00	379.95
796.00	379.95
797.00	386.19
798.00	401.01
799.00	390.87
800.00	372.93
801.00	367.46
802.00	366.68
803.00	380.73
804.00	410.37
805.00	413.49
806.00	410.37
807.00	377.61
808.00	372.93
809.00	379.17
810.00	397.11
811.00	397.89
812.00	376.05
813.00	377.61
814.00	361.22
815.00	379.17
816.00	375.27
817.00	404.91
818.00	396.33
819.00	406.47
820.00	396.33
821.00	409.59
822.00	396.33
823.00	417.40
824.00	429.10
825.00	437.68
826.00	404.91
827.00	376.83
828.00	372.15
829.00	402.57
830.00	422.86
831.00	415.06
832.00	374.49
833.00	351.86
834.00	371.36
835.00	387.75
836.00	408.03
837.00	378.39
838.00	394.77
839.00	394.77
840.00	427.54
841.00	425.98
842.00	422.08
843.00	404.13
844.00	411.93
845.00	399.45
846.00	401.01
847.00	378.39
848.00	393.99
849.00	411.15
850.00	405.69
851.00	404.91
852.00	373.71
853.00	382.29
854.00	386.19
855.00	402.57
856.00	422.86
857.00	411.15
858.00	407.25
859.00	365.90
860.00	351.86
861.00	354.98
862.00	374.49
863.00	395.55
864.00	386.19
865.00	393.21
866.00	399.45
867.00	394.77
868.00	401.79
869.00	398.67
870.00	400.23
871.00	379.95
872.00	374.49
873.00	394.77
874.00	397.11
875.00	380.73
876.00	376.83
877.00	364.34
878.00	367.46
879.00	365.90
880.00	395.55
881.00	413.49
882.00	430.66
883.00	430.66
884.00	425.98
885.00	384.63
886.00	410.37
887.00	393.99
888.00	390.09
889.00	358.88
890.00	374.49
891.00	395.55
892.00	376.83
893.00	365.12
894.00	368.24
895.00	384.63
896.00	384.63
897.00	402.57
898.00	390.87
899.00	415.84
900.00	386.19
901.00	409.59
902.00	415.06
903.00	437.68
904.00	436.90
905.00	434.56
906.00	443.14
907.00	417.40
908.00	391.65
909.00	725.57
910.00	748.97
911.00	761.45
912.00	397.11
913.00	381.51
914.00	379.17
915.00	357.32
916.00	345.62
917.00	356.54
918.00	402.57
919.00	432.22
920.00	418.18
921.00	388.53
922.00	376.05
923.00	364.34
924.00	386.19
925.00	368.24
926.00	367.46
927.00	356.54
928.00	375.27
929.00	411.15
930.00	398.67
931.00	399.45
932.00	379.95
933.00	411.15
934.00	405.69
935.00	411.93
936.00	404.13
937.00	412.71
938.00	411.93
939.00	419.74
940.00	422.86
941.00	397.11
942.00	411.93
943.00	410.37
944.00	418.96
945.00	401.01
946.00	409.59
947.00	386.19
948.00	376.83
949.00	366.68
950.00	390.87
951.00	393.99
952.00	390.87
953.00	390.09
954.00	374.49
955.00	372.15
956.00	354.20
957.00	380.73
958.00	381.51
959.00	393.21
960.00	365.12
961.00	359.66
962.00	362.78
963.00	380.73
964.00	400.23
965.00	410.37
966.00	411.15
967.00	398.67
968.00	394.77
969.00	382.29
970.00	383.85
971.00	376.05
972.00	373.71
973.00	353.42
974.00	388.53
975.00	385.41
976.00	414.27
977.00	390.87
978.00	401.79
979.00	387.75
980.00	376.83
981.00	386.19
982.00	390.09
983.00	399.45
984.00	399.45
985.00	393.21
986.00	385.41
987.00	362.00
988.00	377.61
989.00	395.55
990.00	433.00
991.00	432.22
992.00	418.96
993.00	390.87
994.00	385.41
995.00	389.31
996.00	398.67
997.00	383.85
998.00	376.83
999.00	373.71
1000.00	407.25
1001.00	415.06
1002.00	421.30
1003.00	385.41
1004.00	391.65
1005.00	397.11
1006.00	424.42
1007.00	445.48
1008.00	411.93
1009.00	410.37
1010.00	414.27
1011.00	468.11
1012.00	454.06
1013.00	414.27
1014.00	345.62
1015.00	333.14
1016.00	350.30
1017.00	372.15
1018.00	387.75
1019.00	393.99
1020.00	420.52
1021.00	404.91
1022.00	401.01
1023.00	385.41
1024.00	394.77
1025.00	394.77
1026.00	411.15
1027.00	410.37
1028.00	397.89
1029.00	354.98
1030.00	350.30
1031.00	349.52
1032.00	395.55
1033.00	418.96
1034.00	427.54
1035.00	429.88
1036.00	398.67
1037.00	393.21
1038.00	358.88
1039.00	379.17
1040.00	369.02
1041.00	360.44
1042.00	379.17
1043.00	373.71
1044.00	407.25
1045.00	403.35
1046.00	424.42
1047.00	401.01
1048.00	393.99
1049.00	398.67
1050.00	410.37
1051.00	411.93
1052.00	405.69
1053.00	398.67
1054.00	382.29
1055.00	386.19
1056.00	390.87
1057.00	384.63
1058.00	394.77
1059.00	393.99
1060.00	399.45
1061.00	386.19
1062.00	391.65
1063.00	386.97
1064.00	370.58
1065.00	363.56
1066.00	353.42
1067.00	402.57
1068.00	401.01
1069.00	432.22
1070.00	381.51
1071.00	404.91
1072.00	382.29
1073.00	367.46
1074.00	360.44
1075.00	387.75
1076.00	415.84
1077.00	406.47
1078.00	420.52
1079.00	438.46
1080.00	433.78
1081.00	404.13
1082.00	393.99
1083.00	402.57
1084.00	379.95
1085.00	354.98
1086.00	376.83
1087.00	384.63
1088.00	399.45
1089.00	388.53
1090.00	397.11
1091.00	399.45
1092.00	396.33
1093.00	416.62
1094.00	443.14
1095.00	445.48
1096.00	421.30
1097.00	388.53
1098.00	382.29
1099.00	379.17
1100.00	399.45
1101.00	400.23
1102.00	452.50
1103.00	404.13
1104.00	394.77
1105.00	354.20
1106.00	383.07
1107.00	397.89
1108.00	397.89
1109.00	415.84
1110.00	397.11
1111.00	404.13
1112.00	370.58
1113.00	355.76
1114.00	343.28
1115.00	376.83
1116.00	411.15
1117.00	431.44
1118.00	397.11
1119.00	384.63
1120.00	365.12
1121.00	377.61
1122.00	380.73
1123.00	382.29
1124.00	385.41
1125.00	362.78
1126.00	393.21
1127.00	430.66
1128.00	466.55
1129.00	419.74
1130.00	401.01
1131.00	389.31
1132.00	422.08
1133.00	399.45
1134.00	403.35
1135.00	389.31
1136.00	410.37
1137.00	419.74
1138.00	416.62
1139.00	411.93
1140.00	400.23
1141.00	397.11
1142.00	401.79
1143.00	383.85
1144.00	406.47
1145.00	388.53
1146.00	397.89
1147.00	369.80
1148.00	400.23
1149.00	404.91
1150.00	412.71
1151.00	386.97
1152.00	389.31
1153.00	400.23
1154.00	408.81
1155.00	420.52
1156.00	415.84
1157.00	381.51
1158.00	351.08
1159.00	358.10
1160.00	381.51
1161.00	389.31
1162.00	380.73
1163.00	386.97
1164.00	393.21
1165.00	404.91
1166.00	403.35
1167.00	412.71
1168.00	395.55
1169.00	390.09
1170.00	371.36
1171.00	385.41
1172.00	383.85
1173.00	379.17
1174.00	358.88
1175.00	379.95
1176.00	411.15
1177.00	451.72
1178.00	441.58
1179.00	406.47
1180.00	374.49
1181.00	383.85
1182.00	409.59
1183.00	418.96
1184.00	411.15
1185.00	401.79
1186.00	390.09
1187.00	386.19
1188.00	392.43
1189.00	390.09
1190.00	384.63
1191.00	397.11
1192.00	381.51
1193.00	393.21
1194.00	382.29
1195.00	410.37
1196.00	404.13
1197.00	401.79
1198.00	401.01
1199.00	390.09
1200.00	411.15
1201.00	412.71
1202.00	422.08
1203.00	401.01
1204.00	373.71
1205.00	382.29
1206.00	363.56
1207.00	373.71
1208.00	371.36
1209.00	393.21
1210.00	404.13
1211.00	398.67
1212.00	386.97
1213.00	390.87
1214.00	380.73
1215.00	379.17
1216.00	378.39
1217.00	389.31
1218.00	401.79
1219.00	396.33
1220.00	390.87
1221.00	377.61
1222.00	393.21
1223.00	379.95
1224.00	376.83
1225.00	365.12
1226.00	386.97
1227.00	427.54
1228.00	440.80
1229.00	433.78
1230.00	374.49
1231.00	356.54
1232.00	343.28
1233.00	374.49
1234.00	370.58
1235.00	378.39
1236.00	379.17
1237.00	395.55
1238.00	414.27
1239.00	433.00
1240.00	425.20
1241.00	401.01
1242.00	350.30
1243.00	363.56
1244.00	369.80
1245.00	395.55
1246.00	368.24
1247.00	354.20
1248.00	354.20
1249.00	368.24
1250.00	386.97
1251.00	386.19
1252.00	386.19
1253.00	375.27
1254.00	362.00
1255.00	368.24
1256.00	369.02
1257.00	401.79
1258.00	410.37
1259.00	408.81
1260.00	374.49
1261.00	334.70
1262.00	338.60
1263.00	357.32
1264.00	396.33
1265.00	409.59
1266.00	390.87
1267.00	370.58
1268.00	368.24
1269.00	388.53
1270.00	397.89
1271.00	389.31
1272.00	401.79
1273.00	402.57
1274.00	401.79
1275.00	387.75
1276.00	369.80
1277.00	386.97
1278.00	376.83
1279.00	392.43
1280.00	378.39
1281.00	406.47
1282.00	418.18
1283.00	415.06
1284.00	390.87
1285.00	375.27
1286.00	376.83
1287.00	390.87
1288.00	415.84
1289.00	414.27
1290.00	397.89
1291.00	383.07
1292.00	386.19
1293.00	393.21
1294.00	375.27
1295.00	376.05
1296.00	369.80
1297.00	383.85
1298.00	389.31
1299.00	379.17
1300.00	386.97
1301.00	404.91
1302.00	422.08
1303.00	393.99
1304.00	369.02
1305.00	362.00
1306.00	384.63
1307.00	401.79
1308.00	409.59
1309.00	415.06
1310.00	388.53
1311.00	396.33
1312.00	393.21
1313.00	387.75
1314.00	356.54
1315.00	336.26
1316.00	352.64
1317.00	369.02
1318.00	390.09
1319.00	375.27
1320.00	379.17
1321.00	345.62
1322.00	357.32
1323.00	364.34
1324.00	394.77
1325.00	421.30
1326.00	413.49
1327.00	415.06
1328.00	403.35
1329.00	390.87
1330.00	405.69
1331.00	395.55
1332.00	417.40
1333.00	387.75
1334.00	402.57
1335.00	380.73
1336.00	367.46
1337.00	370.58
1338.00	395.55
1339.00	411.15
1340.00	377.61
1341.00	372.15
1342.00	373.71
1343.00	408.81
1344.00	411.15
1345.00	422.08
1346.00	410.37
1347.00	401.79
1348.00	416.62
1349.00	425.20
1350.00	449.38
1351.00	422.86
1352.00	412.71
1353.00	377.61
1354.00	383.07
1355.00	375.27
1356.00	386.97
1357.00	401.79
1358.00	404.13
1359.00	397.11
1360.00	384.63
1361.00	379.95
1362.00	376.83
1363.00	355.76
1364.00	373.71
1365.00	401.01
