SpectraSuite Data File
++++++++++++++++++++++++++++++++++++
Date: Thu Nov 16 14:27:22 EST 2017
User: cheriyan
Dark Spectrum Present: No
Reference Spectrum Present: No
Number of Sampled Component Spectra: 1
Spectrometers: USB2+H05261
Integration Time (usec): 100000 (USB2+H05261)
Spectra Averaged: 1 (USB2+H05261)
Boxcar Smoothing: 1 (USB2+H05261)
Correct for Electrical Dark: No (USB2+H05261)
Strobe/Lamp Enabled: No (USB2+H05261)
Correct for Detector Non-linearity: No (USB2+H05261)
Correct for Stray Light: No (USB2+H05261)
Number of Pixels in Processed Spectrum: 2048
>>>>>Begin Processed Spectral Data<<<<<
0.00	280.86
1.00	280.86
2.00	280.86
3.00	262.14
4.00	261.36
5.00	269.16
6.00	260.58
7.00	219.23
8.00	188.02
9.00	187.24
10.00	206.75
11.00	222.35
12.00	227.03
13.00	238.73
14.00	253.56
15.00	255.90
16.00	255.12
17.00	214.55
18.00	220.01
19.00	226.25
20.00	248.88
21.00	258.24
22.00	269.94
23.00	287.11
24.00	292.57
25.00	298.03
26.00	314.41
27.00	362.00
28.00	378.39
29.00	386.19
30.00	360.44
31.00	341.72
32.00	333.14
33.00	319.09
34.00	339.38
35.00	357.32
36.00	386.19
37.00	403.35
38.00	412.71
39.00	394.77
40.00	378.39
41.00	369.80
42.00	411.93
43.00	426.76
44.00	403.35
45.00	379.95
46.00	362.00
47.00	403.35
48.00	421.30
49.00	435.34
50.00	395.55
51.00	389.31
52.00	386.97
53.00	407.25
54.00	412.71
55.00	409.59
56.00	408.81
57.00	397.11
58.00	401.01
59.00	372.15
60.00	345.62
61.00	344.06
62.00	376.83
63.00	390.87
64.00	400.23
65.00	401.79
66.00	415.84
67.00	405.69
68.00	386.97
69.00	370.58
70.00	363.56
71.00	382.29
72.00	389.31
73.00	396.33
74.00	405.69
75.00	396.33
76.00	400.23
77.00	386.97
78.00	388.53
79.00	376.83
80.00	376.05
81.00	363.56
82.00	351.08
83.00	326.11
84.00	341.72
85.00	339.38
86.00	311.29
87.00	320.65
88.00	336.26
89.00	393.99
90.00	399.45
91.00	408.81
92.00	390.09
93.00	380.73
94.00	388.53
95.00	394.77
96.00	415.06
97.00	405.69
98.00	397.11
99.00	356.54
100.00	371.36
101.00	379.17
102.00	374.49
103.00	341.72
104.00	335.48
105.00	354.20
106.00	362.00
107.00	379.17
108.00	370.58
109.00	394.77
110.00	377.61
111.00	395.55
112.00	388.53
113.00	398.67
114.00	405.69
115.00	390.87
116.00	403.35
117.00	390.87
118.00	386.19
119.00	361.22
120.00	361.22
121.00	367.46
122.00	403.35
123.00	415.84
124.00	438.46
125.00	393.99
126.00	365.90
127.00	341.72
128.00	370.58
129.00	369.02
130.00	373.71
131.00	378.39
132.00	388.53
133.00	362.00
134.00	354.20
135.00	372.15
136.00	419.74
137.00	433.00
138.00	411.15
139.00	393.21
140.00	376.83
141.00	404.91
142.00	414.27
143.00	407.25
144.00	382.29
145.00	369.80
146.00	352.64
147.00	344.06
148.00	357.32
149.00	386.19
150.00	376.05
151.00	376.83
152.00	362.78
153.00	381.51
154.00	375.27
155.00	379.95
156.00	385.41
157.00	379.17
158.00	374.49
159.00	369.80
160.00	354.20
161.00	352.64
162.00	371.36
163.00	369.80
164.00	371.36
165.00	373.71
166.00	398.67
167.00	389.31
168.00	380.73
169.00	363.56
170.00	386.97
171.00	374.49
172.00	374.49
173.00	372.15
174.00	351.08
175.00	357.32
176.00	353.42
177.00	402.57
178.00	413.49
179.00	409.59
180.00	404.13
181.00	392.43
182.00	411.15
183.00	384.63
184.00	410.37
185.00	377.61
186.00	393.99
187.00	378.39
188.00	399.45
189.00	390.09
190.00	379.95
191.00	388.53
192.00	415.84
193.00	401.79
194.00	380.73
195.00	378.39
196.00	391.65
197.00	409.59
198.00	390.87
199.00	383.07
200.00	379.95
201.00	376.83
202.00	390.09
203.00	376.83
204.00	369.02
205.00	346.40
206.00	364.34
207.00	377.61
208.00	384.63
209.00	379.17
210.00	376.83
211.00	400.23
212.00	401.01
213.00	385.41
214.00	363.56
215.00	366.68
216.00	384.63
217.00	390.09
218.00	390.87
219.00	371.36
220.00	363.56
221.00	359.66
222.00	390.87
223.00	411.93
224.00	390.09
225.00	375.27
226.00	379.17
227.00	406.47
228.00	394.77
229.00	384.63
230.00	376.05
231.00	404.13
232.00	411.15
233.00	386.97
234.00	370.58
235.00	368.24
236.00	384.63
237.00	396.33
238.00	395.55
239.00	411.15
240.00	381.51
241.00	375.27
242.00	365.12
243.00	365.12
244.00	353.42
245.00	354.20
246.00	368.24
247.00	420.52
248.00	427.54
249.00	425.20
250.00	406.47
251.00	401.01
252.00	417.40
253.00	381.51
254.00	371.36
255.00	351.08
256.00	372.15
257.00	393.21
258.00	418.96
259.00	403.35
260.00	377.61
261.00	347.96
262.00	361.22
263.00	393.99
264.00	401.01
265.00	409.59
266.00	411.93
267.00	438.46
268.00	437.68
269.00	424.42
270.00	393.21
271.00	390.09
272.00	400.23
273.00	395.55
274.00	392.43
275.00	380.73
276.00	401.79
277.00	419.74
278.00	396.33
279.00	398.67
280.00	382.29
281.00	408.03
282.00	403.35
283.00	410.37
284.00	395.55
285.00	390.87
286.00	371.36
287.00	367.46
288.00	383.07
289.00	406.47
290.00	434.56
291.00	418.96
292.00	418.96
293.00	393.21
294.00	394.77
295.00	378.39
296.00	393.99
297.00	389.31
298.00	396.33
299.00	399.45
300.00	403.35
301.00	387.75
302.00	374.49
303.00	380.73
304.00	407.25
305.00	414.27
306.00	413.49
307.00	403.35
308.00	414.27
309.00	408.81
310.00	389.31
311.00	390.09
312.00	395.55
313.00	400.23
314.00	385.41
315.00	387.75
316.00	424.42
317.00	433.78
318.00	415.06
319.00	379.17
320.00	369.80
321.00	388.53
322.00	398.67
323.00	391.65
324.00	379.17
325.00	384.63
326.00	378.39
327.00	382.29
328.00	371.36
329.00	385.41
330.00	382.29
331.00	416.62
332.00	401.01
333.00	402.57
334.00	401.79
335.00	429.88
336.00	449.38
337.00	408.81
338.00	370.58
339.00	345.62
340.00	351.86
341.00	365.90
342.00	378.39
343.00	372.93
344.00	393.21
345.00	413.49
346.00	413.49
347.00	393.99
348.00	369.02
349.00	374.49
350.00	397.89
351.00	381.51
352.00	385.41
353.00	407.25
354.00	412.71
355.00	420.52
356.00	386.19
357.00	404.13
358.00	399.45
359.00	386.97
360.00	391.65
361.00	388.53
362.00	383.85
363.00	365.90
364.00	358.88
365.00	376.05
366.00	393.21
367.00	414.27
368.00	450.16
369.00	438.46
370.00	410.37
371.00	387.75
372.00	371.36
373.00	376.05
374.00	366.68
375.00	393.99
376.00	404.91
377.00	391.65
378.00	380.73
379.00	358.10
380.00	352.64
381.00	354.20
382.00	378.39
383.00	387.75
384.00	391.65
385.00	391.65
386.00	402.57
387.00	404.13
388.00	390.09
389.00	402.57
390.00	423.64
391.00	437.68
392.00	414.27
393.00	399.45
394.00	368.24
395.00	365.90
396.00	353.42
397.00	386.19
398.00	412.71
399.00	405.69
400.00	418.96
401.00	409.59
402.00	436.12
403.00	407.25
404.00	393.21
405.00	368.24
406.00	376.05
407.00	355.76
408.00	379.95
409.00	404.13
410.00	433.00
411.00	422.86
412.00	388.53
413.00	372.93
414.00	359.66
415.00	368.24
416.00	386.97
417.00	376.83
418.00	374.49
419.00	356.54
420.00	383.07
421.00	387.75
422.00	408.03
423.00	399.45
424.00	421.30
425.00	418.18
426.00	417.40
427.00	376.05
428.00	365.12
429.00	370.58
430.00	411.15
431.00	404.91
432.00	401.79
433.00	386.97
434.00	402.57
435.00	403.35
436.00	386.19
437.00	383.85
438.00	400.23
439.00	392.43
440.00	411.93
441.00	414.27
442.00	425.20
443.00	388.53
444.00	383.07
445.00	373.71
446.00	377.61
447.00	377.61
448.00	396.33
449.00	424.42
450.00	422.86
451.00	402.57
452.00	378.39
453.00	359.66
454.00	355.76
455.00	354.20
456.00	360.44
457.00	379.95
458.00	389.31
459.00	369.80
460.00	378.39
461.00	348.74
462.00	372.15
463.00	386.19
464.00	408.81
465.00	410.37
466.00	404.13
467.00	401.79
468.00	394.77
469.00	389.31
470.00	408.03
471.00	383.07
472.00	391.65
473.00	388.53
474.00	411.93
475.00	401.79
476.00	402.57
477.00	416.62
478.00	430.66
479.00	416.62
480.00	391.65
481.00	383.07
482.00	372.15
483.00	371.36
484.00	370.58
485.00	388.53
486.00	402.57
487.00	372.15
488.00	358.10
489.00	379.17
490.00	371.36
491.00	387.75
492.00	387.75
493.00	428.32
494.00	418.96
495.00	406.47
496.00	407.25
497.00	402.57
498.00	412.71
499.00	388.53
500.00	423.64
501.00	401.01
502.00	418.96
503.00	401.01
504.00	407.25
505.00	442.36
506.00	442.36
507.00	440.80
508.00	421.30
509.00	412.71
510.00	416.62
511.00	404.91
512.00	416.62
513.00	412.71
514.00	409.59
515.00	394.77
516.00	389.31
517.00	405.69
518.00	418.96
519.00	404.13
520.00	394.77
521.00	381.51
522.00	402.57
523.00	400.23
524.00	417.40
525.00	411.93
526.00	396.33
527.00	396.33
528.00	414.27
529.00	416.62
530.00	418.96
531.00	400.23
532.00	438.46
533.00	412.71
534.00	413.49
535.00	397.89
536.00	408.03
537.00	401.79
538.00	372.15
539.00	383.85
540.00	406.47
541.00	424.42
542.00	433.78
543.00	436.12
544.00	422.08
545.00	394.77
546.00	367.46
547.00	374.49
548.00	383.07
549.00	388.53
550.00	396.33
551.00	374.49
552.00	359.66
553.00	358.88
554.00	378.39
555.00	400.23
556.00	372.15
557.00	382.29
558.00	373.71
559.00	400.23
560.00	409.59
561.00	425.20
562.00	407.25
563.00	383.07
564.00	395.55
565.00	412.71
566.00	429.88
567.00	412.71
568.00	411.93
569.00	408.81
570.00	387.75
571.00	382.29
572.00	371.36
573.00	407.25
574.00	400.23
575.00	421.30
576.00	408.03
577.00	408.03
578.00	405.69
579.00	390.87
580.00	390.87
581.00	389.31
582.00	397.11
583.00	396.33
584.00	374.49
585.00	390.87
586.00	411.93
587.00	394.77
588.00	374.49
589.00	373.71
590.00	397.11
591.00	414.27
592.00	407.25
593.00	413.49
594.00	404.13
595.00	392.43
596.00	367.46
597.00	370.58
598.00	369.80
599.00	383.85
600.00	372.93
601.00	393.21
602.00	401.01
603.00	411.93
604.00	396.33
605.00	386.97
606.00	409.59
607.00	413.49
608.00	430.66
609.00	413.49
610.00	414.27
611.00	397.11
612.00	387.75
613.00	396.33
614.00	401.79
615.00	390.09
616.00	373.71
617.00	379.95
618.00	411.15
619.00	443.92
620.00	461.87
621.00	465.77
622.00	435.34
623.00	439.24
624.00	419.74
625.00	429.10
626.00	421.30
627.00	397.89
628.00	390.87
629.00	397.11
630.00	419.74
631.00	414.27
632.00	390.09
633.00	404.91
634.00	435.34
635.00	487.61
636.00	551.59
637.00	572.65
638.00	555.49
639.00	522.72
640.00	514.92
641.00	513.36
642.00	475.91
643.00	447.82
644.00	415.06
645.00	427.54
646.00	425.20
647.00	418.96
648.00	399.45
649.00	393.21
650.00	432.22
651.00	428.32
652.00	432.22
653.00	384.63
654.00	429.88
655.00	427.54
656.00	443.92
657.00	401.01
658.00	397.89
659.00	390.09
660.00	371.36
661.00	372.15
662.00	399.45
663.00	396.33
664.00	388.53
665.00	367.46
666.00	391.65
667.00	395.55
668.00	400.23
669.00	406.47
670.00	418.18
671.00	411.15
672.00	395.55
673.00	394.77
674.00	393.99
675.00	398.67
676.00	405.69
677.00	414.27
678.00	434.56
679.00	442.36
680.00	462.65
681.00	442.36
682.00	440.80
683.00	410.37
684.00	397.11
685.00	383.07
686.00	368.24
687.00	375.27
688.00	383.07
689.00	396.33
690.00	395.55
691.00	379.17
692.00	367.46
693.00	385.41
694.00	397.89
695.00	407.25
696.00	409.59
697.00	410.37
698.00	419.74
699.00	404.91
700.00	400.23
701.00	400.23
702.00	415.06
703.00	419.74
704.00	413.49
705.00	415.06
706.00	416.62
707.00	433.78
708.00	413.49
709.00	396.33
710.00	386.19
711.00	388.53
712.00	398.67
713.00	377.61
714.00	394.77
715.00	397.11
716.00	421.30
717.00	433.78
718.00	477.47
719.00	457.18
720.00	418.18
721.00	356.54
722.00	372.93
723.00	398.67
724.00	412.71
725.00	405.69
726.00	383.85
727.00	378.39
728.00	379.95
729.00	397.11
730.00	387.75
731.00	387.75
732.00	361.22
733.00	384.63
734.00	393.21
735.00	414.27
736.00	407.25
737.00	397.11
738.00	398.67
739.00	388.53
740.00	391.65
741.00	379.95
742.00	384.63
743.00	431.44
744.00	448.60
745.00	445.48
746.00	396.33
747.00	380.73
748.00	369.80
749.00	381.51
750.00	392.43
751.00	399.45
752.00	386.97
753.00	408.81
754.00	401.79
755.00	373.71
756.00	354.98
757.00	363.56
758.00	412.71
759.00	431.44
760.00	440.80
761.00	429.88
762.00	407.25
763.00	406.47
764.00	415.84
765.00	401.01
766.00	377.61
767.00	346.40
768.00	372.15
769.00	400.23
770.00	439.24
771.00	410.37
772.00	401.79
773.00	393.21
774.00	406.47
775.00	414.27
776.00	409.59
777.00	403.35
778.00	420.52
779.00	409.59
780.00	420.52
781.00	414.27
782.00	393.21
783.00	463.43
784.00	442.36
785.00	463.43
786.00	387.75
787.00	393.99
788.00	409.59
789.00	400.23
790.00	413.49
791.00	404.13
792.00	405.69
793.00	365.12
794.00	345.62
795.00	344.06
796.00	380.73
797.00	390.87
798.00	382.29
799.00	358.10
800.00	330.80
801.00	346.40
802.00	370.58
803.00	393.99
804.00	383.07
805.00	364.34
806.00	367.46
807.00	371.36
808.00	397.89
809.00	392.43
810.00	414.27
811.00	366.68
812.00	388.53
813.00	359.66
814.00	393.21
815.00	369.80
816.00	392.43
817.00	401.01
818.00	426.76
819.00	409.59
820.00	396.33
821.00	381.51
822.00	413.49
823.00	428.32
824.00	443.14
825.00	433.00
826.00	398.67
827.00	393.99
828.00	367.46
829.00	386.97
830.00	410.37
831.00	414.27
832.00	411.15
833.00	408.03
834.00	401.79
835.00	396.33
836.00	358.88
837.00	389.31
838.00	387.75
839.00	399.45
840.00	366.68
841.00	357.32
842.00	372.15
843.00	389.31
844.00	410.37
845.00	397.11
846.00	421.30
847.00	421.30
848.00	422.86
849.00	429.88
850.00	436.90
851.00	433.78
852.00	408.81
853.00	392.43
854.00	390.09
855.00	379.95
856.00	365.90
857.00	330.80
858.00	346.40
859.00	372.15
860.00	419.74
861.00	427.54
862.00	416.62
863.00	424.42
864.00	396.33
865.00	407.25
866.00	383.07
867.00	378.39
868.00	385.41
869.00	421.30
870.00	440.02
871.00	452.50
872.00	427.54
873.00	439.24
874.00	406.47
875.00	394.77
876.00	380.73
877.00	398.67
878.00	413.49
879.00	420.52
880.00	427.54
881.00	417.40
882.00	432.22
883.00	408.81
884.00	397.11
885.00	366.68
886.00	394.77
887.00	409.59
888.00	430.66
889.00	419.74
890.00	421.30
891.00	397.11
892.00	398.67
893.00	372.93
894.00	379.95
895.00	360.44
896.00	394.77
897.00	415.84
898.00	436.12
899.00	449.38
900.00	457.18
901.00	436.12
902.00	437.68
903.00	404.91
904.00	402.57
905.00	385.41
906.00	408.81
907.00	435.34
908.00	425.20
909.00	796.56
910.00	826.99
911.00	823.87
912.00	433.78
913.00	397.11
914.00	398.67
915.00	410.37
916.00	401.01
917.00	405.69
918.00	393.21
919.00	387.75
920.00	400.23
921.00	433.00
922.00	470.45
923.00	461.09
924.00	455.62
925.00	418.18
926.00	411.93
927.00	370.58
928.00	384.63
929.00	372.93
930.00	382.29
931.00	350.30
932.00	343.28
933.00	333.92
934.00	357.32
935.00	372.93
936.00	395.55
937.00	392.43
938.00	384.63
939.00	363.56
940.00	372.93
941.00	386.19
942.00	411.15
943.00	408.03
944.00	402.57
945.00	398.67
946.00	411.93
947.00	425.98
948.00	428.32
949.00	397.11
950.00	399.45
951.00	404.91
952.00	418.96
953.00	400.23
954.00	361.22
955.00	367.46
956.00	369.02
957.00	416.62
958.00	418.18
959.00	402.57
960.00	393.99
961.00	380.73
962.00	392.43
963.00	387.75
964.00	395.55
965.00	392.43
966.00	382.29
967.00	369.02
968.00	398.67
969.00	393.21
970.00	423.64
971.00	392.43
972.00	383.85
973.00	365.12
974.00	385.41
975.00	406.47
976.00	393.99
977.00	381.51
978.00	377.61
979.00	401.01
980.00	409.59
981.00	418.96
982.00	409.59
983.00	412.71
984.00	408.81
985.00	429.10
986.00	433.00
987.00	424.42
988.00	417.40
989.00	419.74
990.00	403.35
991.00	393.21
992.00	368.24
993.00	389.31
994.00	385.41
995.00	397.89
996.00	397.11
997.00	384.63
998.00	360.44
999.00	361.22
1000.00	364.34
1001.00	379.17
1002.00	373.71
1003.00	382.29
1004.00	393.21
1005.00	398.67
1006.00	402.57
1007.00	413.49
1008.00	386.97
1009.00	386.97
1010.00	418.18
1011.00	441.58
1012.00	443.92
1013.00	415.84
1014.00	440.02
1015.00	424.42
1016.00	403.35
1017.00	376.83
1018.00	404.91
1019.00	422.86
1020.00	436.12
1021.00	407.25
1022.00	391.65
1023.00	378.39
1024.00	397.11
1025.00	392.43
1026.00	405.69
1027.00	419.74
1028.00	431.44
1029.00	423.64
1030.00	401.79
1031.00	411.15
1032.00	433.78
1033.00	434.56
1034.00	416.62
1035.00	415.84
1036.00	404.13
1037.00	429.10
1038.00	411.15
1039.00	437.68
1040.00	410.37
1041.00	422.86
1042.00	429.10
1043.00	418.96
1044.00	421.30
1045.00	472.01
1046.00	461.87
1047.00	442.36
1048.00	378.39
1049.00	413.49
1050.00	399.45
1051.00	403.35
1052.00	383.85
1053.00	389.31
1054.00	380.73
1055.00	383.85
1056.00	397.11
1057.00	369.02
1058.00	371.36
1059.00	364.34
1060.00	378.39
1061.00	379.95
1062.00	387.75
1063.00	394.77
1064.00	399.45
1065.00	408.81
1066.00	412.71
1067.00	429.10
1068.00	409.59
1069.00	418.18
1070.00	411.93
1071.00	420.52
1072.00	411.93
1073.00	386.97
1074.00	372.15
1075.00	376.05
1076.00	400.23
1077.00	422.86
1078.00	413.49
1079.00	440.80
1080.00	414.27
1081.00	415.06
1082.00	383.85
1083.00	403.35
1084.00	410.37
1085.00	386.97
1086.00	422.08
1087.00	415.06
1088.00	430.66
1089.00	389.31
1090.00	404.91
1091.00	405.69
1092.00	397.89
1093.00	378.39
1094.00	379.17
1095.00	393.99
1096.00	393.21
1097.00	390.87
1098.00	380.73
1099.00	400.23
1100.00	379.17
1101.00	378.39
1102.00	355.76
1103.00	354.98
1104.00	377.61
1105.00	368.24
1106.00	404.91
1107.00	391.65
1108.00	413.49
1109.00	385.41
1110.00	372.93
1111.00	365.90
1112.00	401.79
1113.00	413.49
1114.00	415.06
1115.00	390.09
1116.00	394.77
1117.00	404.91
1118.00	386.19
1119.00	375.27
1120.00	363.56
1121.00	375.27
1122.00	408.81
1123.00	401.79
1124.00	437.68
1125.00	392.43
1126.00	405.69
1127.00	390.09
1128.00	390.09
1129.00	390.09
1130.00	388.53
1131.00	400.23
1132.00	397.11
1133.00	376.83
1134.00	371.36
1135.00	384.63
1136.00	423.64
1137.00	445.48
1138.00	441.58
1139.00	408.81
1140.00	379.95
1141.00	371.36
1142.00	379.17
1143.00	390.09
1144.00	396.33
1145.00	418.96
1146.00	450.94
1147.00	442.36
1148.00	440.02
1149.00	445.48
1150.00	464.21
1151.00	443.14
1152.00	419.74
1153.00	405.69
1154.00	404.91
1155.00	386.19
1156.00	392.43
1157.00	414.27
1158.00	427.54
1159.00	443.92
1160.00	439.24
1161.00	455.62
1162.00	440.02
1163.00	447.04
1164.00	428.32
1165.00	436.90
1166.00	396.33
1167.00	415.06
1168.00	403.35
1169.00	396.33
1170.00	378.39
1171.00	366.68
1172.00	418.18
1173.00	429.10
1174.00	422.08
1175.00	411.93
1176.00	426.76
1177.00	468.11
1178.00	450.16
1179.00	426.76
1180.00	402.57
1181.00	405.69
1182.00	422.86
1183.00	424.42
1184.00	443.14
1185.00	415.06
1186.00	411.93
1187.00	401.01
1188.00	399.45
1189.00	429.10
1190.00	436.12
1191.00	462.65
1192.00	425.98
1193.00	400.23
1194.00	393.99
1195.00	404.91
1196.00	394.77
1197.00	409.59
1198.00	408.03
1199.00	441.58
1200.00	447.04
1201.00	471.23
1202.00	475.13
1203.00	452.50
1204.00	411.15
1205.00	398.67
1206.00	395.55
1207.00	420.52
1208.00	438.46
1209.00	438.46
1210.00	453.28
1211.00	431.44
1212.00	423.64
1213.00	394.77
1214.00	435.34
1215.00	457.96
1216.00	479.81
1217.00	450.94
1218.00	420.52
1219.00	386.19
1220.00	399.45
1221.00	402.57
1222.00	393.21
1223.00	372.15
1224.00	363.56
1225.00	378.39
1226.00	369.02
1227.00	398.67
1228.00	420.52
1229.00	443.92
1230.00	439.24
1231.00	471.23
1232.00	477.47
1233.00	470.45
1234.00	448.60
1235.00	437.68
1236.00	449.38
1237.00	439.24
1238.00	432.22
1239.00	446.26
1240.00	461.87
1241.00	468.89
1242.00	435.34
1243.00	416.62
1244.00	393.21
1245.00	423.64
1246.00	423.64
1247.00	457.96
1248.00	418.96
1249.00	418.18
1250.00	408.81
1251.00	443.14
1252.00	437.68
1253.00	422.08
1254.00	409.59
1255.00	401.01
1256.00	385.41
1257.00	401.79
1258.00	397.89
1259.00	421.30
1260.00	398.67
1261.00	401.79
1262.00	415.06
1263.00	425.20
1264.00	440.80
1265.00	410.37
1266.00	413.49
1267.00	387.75
1268.00	396.33
1269.00	386.19
1270.00	424.42
1271.00	436.90
1272.00	427.54
1273.00	417.40
1274.00	406.47
1275.00	410.37
1276.00	393.99
1277.00	390.87
1278.00	390.87
1279.00	421.30
1280.00	436.12
1281.00	471.23
1282.00	461.09
1283.00	472.01
1284.00	460.31
1285.00	464.21
1286.00	434.56
1287.00	423.64
1288.00	413.49
1289.00	415.84
1290.00	415.84
1291.00	411.93
1292.00	418.18
1293.00	409.59
1294.00	396.33
1295.00	379.95
1296.00	374.49
1297.00	418.96
1298.00	423.64
1299.00	416.62
1300.00	397.11
1301.00	418.96
1302.00	443.14
1303.00	433.78
1304.00	422.86
1305.00	401.79
1306.00	391.65
1307.00	383.85
1308.00	393.99
1309.00	380.73
1310.00	382.29
1311.00	404.13
1312.00	417.40
1313.00	433.78
1314.00	401.79
1315.00	425.20
1316.00	404.13
1317.00	426.76
1318.00	397.11
1319.00	414.27
1320.00	401.01
1321.00	393.99
1322.00	369.80
1323.00	355.76
1324.00	389.31
1325.00	425.20
1326.00	465.77
1327.00	467.33
1328.00	451.72
1329.00	405.69
1330.00	407.25
1331.00	425.98
1332.00	464.21
1333.00	429.88
1334.00	399.45
1335.00	379.95
1336.00	391.65
1337.00	406.47
1338.00	407.25
1339.00	415.84
1340.00	405.69
1341.00	397.89
1342.00	397.89
1343.00	410.37
1344.00	415.84
1345.00	401.79
1346.00	382.29
1347.00	386.19
1348.00	399.45
1349.00	427.54
1350.00	413.49
1351.00	423.64
1352.00	390.09
1353.00	378.39
1354.00	365.90
1355.00	373.71
1356.00	399.45
1357.00	425.20
1358.00	454.84
1359.00	457.18
1360.00	419.74
1361.00	397.11
1362.00	395.55
1363.00	421.30
1364.00	454.84
1365.00	446.26
