SpectraSuite Data File
++++++++++++++++++++++++++++++++++++
Date: Thu Nov 16 14:27:20 EST 2017
User: cheriyan
Dark Spectrum Present: No
Reference Spectrum Present: No
Number of Sampled Component Spectra: 1
Spectrometers: USB2+H05261
Integration Time (usec): 100000 (USB2+H05261)
Spectra Averaged: 1 (USB2+H05261)
Boxcar Smoothing: 1 (USB2+H05261)
Correct for Electrical Dark: No (USB2+H05261)
Strobe/Lamp Enabled: No (USB2+H05261)
Correct for Detector Non-linearity: No (USB2+H05261)
Correct for Stray Light: No (USB2+H05261)
Number of Pixels in Processed Spectrum: 2048
>>>>>Begin Processed Spectral Data<<<<<
0.00	290.23
1.00	290.23
2.00	259.02
3.00	238.73
4.00	239.51
5.00	242.64
6.00	223.13
7.00	184.90
8.00	187.24
9.00	191.92
10.00	207.53
11.00	193.48
12.00	195.04
13.00	193.48
14.00	198.17
15.00	208.31
16.00	198.17
17.00	223.13
18.00	206.75
19.00	234.05
20.00	238.73
21.00	277.74
22.00	323.77
23.00	347.96
24.00	340.94
25.00	294.91
26.00	279.30
27.00	313.63
28.00	354.98
29.00	385.41
30.00	384.63
31.00	363.56
32.00	358.10
33.00	352.64
34.00	342.50
35.00	333.14
36.00	359.66
37.00	367.46
38.00	362.78
39.00	335.48
40.00	367.46
41.00	384.63
42.00	408.03
43.00	369.80
44.00	381.51
45.00	366.68
46.00	411.93
47.00	401.01
48.00	405.69
49.00	403.35
50.00	418.18
51.00	401.79
52.00	390.87
53.00	364.34
54.00	374.49
55.00	343.28
56.00	355.76
57.00	358.88
58.00	390.87
59.00	395.55
60.00	408.03
61.00	408.81
62.00	384.63
63.00	355.76
64.00	344.06
65.00	362.00
66.00	379.95
67.00	393.21
68.00	383.85
69.00	377.61
70.00	395.55
71.00	422.08
72.00	443.92
73.00	418.18
74.00	383.85
75.00	375.27
76.00	353.42
77.00	367.46
78.00	356.54
79.00	366.68
80.00	377.61
81.00	382.29
82.00	398.67
83.00	388.53
84.00	387.75
85.00	380.73
86.00	379.17
87.00	386.19
88.00	398.67
89.00	397.11
90.00	384.63
91.00	374.49
92.00	389.31
93.00	389.31
94.00	383.07
95.00	358.10
96.00	352.64
97.00	358.88
98.00	371.36
99.00	383.85
100.00	378.39
101.00	386.97
102.00	411.15
103.00	411.15
104.00	400.23
105.00	393.21
106.00	397.11
107.00	413.49
108.00	379.95
109.00	373.71
110.00	372.15
111.00	353.42
112.00	344.06
113.00	350.30
114.00	401.01
115.00	426.76
116.00	402.57
117.00	392.43
118.00	404.91
119.00	427.54
120.00	441.58
121.00	417.40
122.00	409.59
123.00	401.79
124.00	408.81
125.00	404.13
126.00	390.87
127.00	371.36
128.00	372.15
129.00	395.55
130.00	402.57
131.00	423.64
132.00	409.59
133.00	418.18
134.00	401.01
135.00	382.29
136.00	405.69
137.00	410.37
138.00	412.71
139.00	393.99
140.00	386.19
141.00	388.53
142.00	384.63
143.00	380.73
144.00	401.01
145.00	400.23
146.00	433.00
147.00	405.69
148.00	399.45
149.00	381.51
150.00	385.41
151.00	395.55
152.00	385.41
153.00	390.09
154.00	402.57
155.00	423.64
156.00	409.59
157.00	402.57
158.00	384.63
159.00	416.62
160.00	415.84
161.00	440.80
162.00	461.09
163.00	439.24
164.00	403.35
165.00	375.27
166.00	398.67
167.00	408.03
168.00	413.49
169.00	405.69
170.00	372.15
171.00	374.49
172.00	366.68
173.00	429.10
174.00	411.93
175.00	425.98
176.00	411.93
177.00	402.57
178.00	397.89
179.00	368.24
180.00	401.01
181.00	413.49
182.00	427.54
183.00	388.53
184.00	374.49
185.00	360.44
186.00	390.87
187.00	388.53
188.00	394.77
189.00	376.05
190.00	374.49
191.00	385.41
192.00	401.01
193.00	403.35
194.00	413.49
195.00	383.07
196.00	376.83
197.00	375.27
198.00	395.55
199.00	396.33
200.00	369.80
201.00	374.49
202.00	377.61
203.00	376.83
204.00	368.24
205.00	388.53
206.00	380.73
207.00	373.71
208.00	362.78
209.00	385.41
210.00	405.69
211.00	403.35
212.00	379.95
213.00	379.95
214.00	356.54
215.00	379.17
216.00	403.35
217.00	436.90
218.00	468.89
219.00	459.53
220.00	440.80
221.00	381.51
222.00	390.87
223.00	390.09
224.00	429.88
225.00	404.91
226.00	413.49
227.00	397.11
228.00	393.21
229.00	418.96
230.00	428.32
231.00	406.47
232.00	361.22
233.00	358.10
234.00	388.53
235.00	415.06
236.00	404.13
237.00	413.49
238.00	393.99
239.00	377.61
240.00	355.76
241.00	383.85
242.00	409.59
243.00	405.69
244.00	382.29
245.00	372.15
246.00	383.85
247.00	385.41
248.00	402.57
249.00	390.09
250.00	391.65
251.00	378.39
252.00	366.68
253.00	354.98
254.00	371.36
255.00	395.55
256.00	415.06
257.00	420.52
258.00	399.45
259.00	373.71
260.00	349.52
261.00	372.93
262.00	393.21
263.00	401.79
264.00	411.15
265.00	429.88
266.00	403.35
267.00	400.23
268.00	393.21
269.00	418.18
270.00	407.25
271.00	376.05
272.00	381.51
273.00	369.80
274.00	379.17
275.00	369.02
276.00	379.95
277.00	395.55
278.00	418.96
279.00	424.42
280.00	457.96
281.00	436.12
282.00	431.44
283.00	383.85
284.00	406.47
285.00	395.55
286.00	404.91
287.00	384.63
288.00	387.75
289.00	376.83
290.00	377.61
291.00	392.43
292.00	408.03
293.00	402.57
294.00	399.45
295.00	398.67
296.00	411.15
297.00	393.99
298.00	375.27
299.00	379.95
300.00	376.83
301.00	399.45
302.00	383.85
303.00	397.89
304.00	390.87
305.00	394.77
306.00	370.58
307.00	359.66
308.00	344.84
309.00	340.94
310.00	354.20
311.00	350.30
312.00	374.49
313.00	389.31
314.00	407.25
315.00	405.69
316.00	380.73
317.00	393.21
318.00	389.31
319.00	399.45
320.00	387.75
321.00	376.83
322.00	365.12
323.00	339.38
324.00	330.80
325.00	344.06
326.00	368.24
327.00	415.84
328.00	423.64
329.00	429.88
330.00	422.86
331.00	414.27
332.00	395.55
333.00	399.45
334.00	390.87
335.00	407.25
336.00	394.77
337.00	411.15
338.00	397.11
339.00	387.75
340.00	376.05
341.00	399.45
342.00	409.59
343.00	387.75
344.00	391.65
345.00	370.58
346.00	387.75
347.00	365.12
348.00	395.55
349.00	414.27
350.00	446.26
351.00	434.56
352.00	433.00
353.00	425.20
354.00	438.46
355.00	425.20
356.00	410.37
357.00	383.07
358.00	364.34
359.00	357.32
360.00	377.61
361.00	418.18
362.00	440.02
363.00	408.81
364.00	390.09
365.00	382.29
366.00	417.40
367.00	419.74
368.00	416.62
369.00	419.74
370.00	407.25
371.00	405.69
372.00	380.73
373.00	383.07
374.00	398.67
375.00	385.41
376.00	357.32
377.00	343.28
378.00	345.62
379.00	373.71
380.00	380.73
381.00	398.67
382.00	385.41
383.00	382.29
384.00	400.23
385.00	397.11
386.00	364.34
387.00	353.42
388.00	377.61
389.00	389.31
390.00	397.89
391.00	395.55
392.00	404.91
393.00	376.05
394.00	374.49
395.00	398.67
396.00	418.18
397.00	422.86
398.00	394.77
399.00	378.39
400.00	361.22
401.00	352.64
402.00	353.42
403.00	342.50
404.00	357.32
405.00	399.45
406.00	419.74
407.00	440.02
408.00	413.49
409.00	433.78
410.00	404.13
411.00	369.02
412.00	340.94
413.00	347.18
414.00	404.13
415.00	421.30
416.00	432.22
417.00	407.25
418.00	401.01
419.00	375.27
420.00	346.40
421.00	369.02
422.00	386.19
423.00	425.98
424.00	398.67
425.00	410.37
426.00	401.79
427.00	422.08
428.00	408.81
429.00	439.24
430.00	440.02
431.00	439.24
432.00	419.74
433.00	420.52
434.00	412.71
435.00	417.40
436.00	377.61
437.00	408.81
438.00	380.73
439.00	386.19
440.00	371.36
441.00	415.84
442.00	443.14
443.00	443.14
444.00	414.27
445.00	413.49
446.00	393.21
447.00	383.85
448.00	382.29
449.00	390.87
450.00	400.23
451.00	381.51
452.00	378.39
453.00	407.25
454.00	414.27
455.00	437.68
456.00	408.81
457.00	404.13
458.00	389.31
459.00	406.47
460.00	416.62
461.00	418.96
462.00	390.09
463.00	385.41
464.00	369.02
465.00	383.07
466.00	386.19
467.00	414.27
468.00	392.43
469.00	384.63
470.00	365.12
471.00	376.05
472.00	385.41
473.00	396.33
474.00	391.65
475.00	350.30
476.00	356.54
477.00	337.04
478.00	390.09
479.00	378.39
480.00	439.24
481.00	432.22
482.00	460.31
483.00	434.56
484.00	439.24
485.00	394.77
486.00	415.84
487.00	399.45
488.00	417.40
489.00	406.47
490.00	409.59
491.00	436.12
492.00	424.42
493.00	415.06
494.00	407.25
495.00	406.47
496.00	420.52
497.00	408.03
498.00	425.20
499.00	418.96
500.00	451.72
501.00	443.14
502.00	460.31
503.00	425.20
504.00	403.35
505.00	394.77
506.00	401.01
507.00	415.84
508.00	435.34
509.00	444.70
510.00	454.84
511.00	461.09
512.00	460.31
513.00	464.21
514.00	447.82
515.00	424.42
516.00	397.89
517.00	385.41
518.00	406.47
519.00	427.54
520.00	432.22
521.00	414.27
522.00	409.59
523.00	395.55
524.00	370.58
525.00	379.17
526.00	397.11
527.00	455.62
528.00	451.72
529.00	443.92
530.00	427.54
531.00	413.49
532.00	427.54
533.00	401.01
534.00	404.91
535.00	399.45
536.00	400.23
537.00	410.37
538.00	397.11
539.00	421.30
540.00	406.47
541.00	419.74
542.00	400.23
543.00	417.40
544.00	404.91
545.00	411.15
546.00	383.85
547.00	401.79
548.00	393.21
549.00	397.11
550.00	397.11
551.00	403.35
552.00	409.59
553.00	403.35
554.00	413.49
555.00	421.30
556.00	404.13
557.00	420.52
558.00	393.21
559.00	397.11
560.00	371.36
561.00	385.41
562.00	401.01
563.00	402.57
564.00	403.35
565.00	381.51
566.00	419.74
567.00	440.80
568.00	465.77
569.00	423.64
570.00	430.66
571.00	443.14
572.00	458.75
573.00	425.98
574.00	419.74
575.00	417.40
576.00	401.79
577.00	375.27
578.00	388.53
579.00	415.06
580.00	411.15
581.00	382.29
582.00	378.39
583.00	413.49
584.00	429.88
585.00	448.60
586.00	417.40
587.00	395.55
588.00	386.97
589.00	385.41
590.00	378.39
591.00	383.85
592.00	385.41
593.00	402.57
594.00	392.43
595.00	379.95
596.00	362.78
597.00	335.48
598.00	365.90
599.00	392.43
600.00	428.32
601.00	436.12
602.00	443.92
603.00	434.56
604.00	415.84
605.00	424.42
606.00	414.27
607.00	397.11
608.00	365.12
609.00	350.30
610.00	369.02
611.00	379.95
612.00	403.35
613.00	404.13
614.00	402.57
615.00	408.81
616.00	397.11
617.00	387.75
618.00	383.85
619.00	402.57
620.00	399.45
621.00	406.47
622.00	394.77
623.00	375.27
624.00	369.80
625.00	396.33
626.00	422.08
627.00	407.25
628.00	405.69
629.00	419.74
630.00	423.64
631.00	392.43
632.00	380.73
633.00	412.71
634.00	475.91
635.00	552.37
636.00	638.97
637.00	701.38
638.00	723.23
639.00	691.24
640.00	627.26
641.00	573.43
642.00	500.09
643.00	435.34
644.00	381.51
645.00	386.19
646.00	415.84
647.00	431.44
648.00	426.76
649.00	393.99
650.00	421.30
651.00	432.22
652.00	445.48
653.00	418.96
654.00	448.60
655.00	460.31
656.00	462.65
657.00	411.93
658.00	397.89
659.00	395.55
660.00	398.67
661.00	397.89
662.00	404.13
663.00	412.71
664.00	401.01
665.00	390.09
666.00	385.41
667.00	400.23
668.00	404.91
669.00	422.86
670.00	431.44
671.00	429.88
672.00	425.20
673.00	432.22
674.00	434.56
675.00	447.04
676.00	451.72
677.00	467.33
678.00	464.99
679.00	478.25
680.00	490.73
681.00	476.69
682.00	447.82
683.00	427.54
684.00	425.20
685.00	412.71
686.00	377.61
687.00	358.10
688.00	369.80
689.00	405.69
690.00	430.66
691.00	433.78
692.00	422.08
693.00	411.15
694.00	413.49
695.00	404.91
696.00	383.07
697.00	377.61
698.00	375.27
699.00	376.83
700.00	366.68
701.00	370.58
702.00	395.55
703.00	415.06
704.00	422.86
705.00	425.20
706.00	442.36
707.00	438.46
708.00	445.48
709.00	412.71
710.00	398.67
711.00	360.44
712.00	365.12
713.00	378.39
714.00	399.45
715.00	411.15
716.00	430.66
717.00	450.94
718.00	487.61
719.00	482.93
720.00	471.23
721.00	408.03
722.00	415.84
723.00	428.32
724.00	459.53
725.00	432.22
726.00	415.06
727.00	423.64
728.00	434.56
729.00	467.33
730.00	424.42
731.00	406.47
732.00	373.71
733.00	397.11
734.00	422.08
735.00	416.62
736.00	397.11
737.00	371.36
738.00	372.93
739.00	392.43
740.00	411.93
741.00	432.22
742.00	417.40
743.00	441.58
744.00	442.36
745.00	456.40
746.00	441.58
747.00	429.10
748.00	430.66
749.00	414.27
750.00	420.52
751.00	424.42
752.00	458.75
753.00	464.21
754.00	455.62
755.00	455.62
756.00	433.78
757.00	437.68
758.00	411.93
759.00	401.79
760.00	416.62
761.00	418.18
762.00	420.52
763.00	395.55
764.00	404.91
765.00	412.71
766.00	411.93
767.00	393.21
768.00	410.37
769.00	398.67
770.00	393.99
771.00	364.34
772.00	404.13
773.00	408.03
774.00	403.35
775.00	400.23
776.00	408.03
777.00	452.50
778.00	450.16
779.00	454.84
780.00	437.68
781.00	425.20
782.00	413.49
783.00	469.67
784.00	489.95
785.00	479.03
786.00	420.52
787.00	387.75
788.00	400.23
789.00	383.07
790.00	378.39
791.00	381.51
792.00	369.02
793.00	382.29
794.00	379.95
795.00	417.40
796.00	416.62
797.00	421.30
798.00	396.33
799.00	378.39
800.00	368.24
801.00	365.90
802.00	407.25
803.00	423.64
804.00	408.03
805.00	372.15
806.00	351.08
807.00	373.71
808.00	377.61
809.00	386.97
810.00	401.79
811.00	404.91
812.00	382.29
813.00	379.95
814.00	379.95
815.00	418.18
816.00	408.81
817.00	423.64
818.00	425.20
819.00	424.42
820.00	412.71
821.00	423.64
822.00	454.84
823.00	455.62
824.00	430.66
825.00	401.79
826.00	415.84
827.00	406.47
828.00	398.67
829.00	398.67
830.00	441.58
831.00	475.91
832.00	472.01
833.00	442.36
834.00	406.47
835.00	393.99
836.00	364.34
837.00	384.63
838.00	383.85
839.00	395.55
840.00	366.68
841.00	362.78
842.00	354.20
843.00	358.10
844.00	374.49
845.00	415.84
846.00	411.15
847.00	402.57
848.00	387.75
849.00	433.00
850.00	452.50
851.00	467.33
852.00	434.56
853.00	410.37
854.00	359.66
855.00	368.24
856.00	362.00
857.00	399.45
858.00	383.85
859.00	358.88
860.00	345.62
861.00	366.68
862.00	412.71
863.00	428.32
864.00	444.70
865.00	460.31
866.00	454.06
867.00	448.60
868.00	423.64
869.00	436.90
870.00	417.40
871.00	394.77
872.00	358.88
873.00	373.71
874.00	379.95
875.00	404.13
876.00	412.71
877.00	433.78
878.00	443.14
879.00	422.08
880.00	420.52
881.00	413.49
882.00	423.64
883.00	442.36
884.00	425.20
885.00	398.67
886.00	400.23
887.00	408.03
888.00	422.08
889.00	395.55
890.00	401.79
891.00	437.68
892.00	452.50
893.00	439.24
894.00	417.40
895.00	409.59
896.00	404.13
897.00	409.59
898.00	400.23
899.00	437.68
900.00	417.40
901.00	445.48
902.00	429.88
903.00	444.70
904.00	431.44
905.00	412.71
906.00	396.33
907.00	369.80
908.00	391.65
909.00	751.31
910.00	777.06
911.00	759.89
912.00	395.55
913.00	399.45
914.00	407.25
915.00	418.96
916.00	386.97
917.00	374.49
918.00	364.34
919.00	376.05
920.00	388.53
921.00	403.35
922.00	415.84
923.00	404.91
924.00	411.15
925.00	388.53
926.00	415.84
927.00	418.96
928.00	429.10
929.00	429.88
930.00	430.66
931.00	430.66
932.00	415.06
933.00	409.59
934.00	423.64
935.00	425.20
936.00	418.18
937.00	389.31
938.00	396.33
939.00	383.85
940.00	412.71
941.00	404.91
942.00	419.74
943.00	415.06
944.00	415.06
945.00	443.14
946.00	452.50
947.00	455.62
948.00	422.08
949.00	397.11
950.00	418.18
951.00	433.00
952.00	424.42
953.00	409.59
954.00	404.13
955.00	419.74
956.00	408.03
957.00	397.89
958.00	397.89
959.00	387.75
960.00	387.75
961.00	421.30
962.00	414.27
963.00	439.24
964.00	430.66
965.00	459.53
966.00	434.56
967.00	395.55
968.00	376.83
969.00	362.00
970.00	373.71
971.00	383.85
972.00	401.01
973.00	419.74
974.00	403.35
975.00	388.53
976.00	362.78
977.00	358.10
978.00	383.85
979.00	418.96
980.00	427.54
981.00	415.06
982.00	402.57
983.00	388.53
984.00	380.73
985.00	344.84
986.00	362.00
987.00	377.61
988.00	415.84
989.00	432.22
990.00	423.64
991.00	422.86
992.00	397.11
993.00	388.53
994.00	365.90
995.00	365.90
996.00	376.05
997.00	378.39
998.00	392.43
999.00	379.95
1000.00	386.19
1001.00	383.85
1002.00	384.63
1003.00	393.99
1004.00	393.21
1005.00	415.06
1006.00	432.22
1007.00	429.88
1008.00	404.13
1009.00	386.97
1010.00	436.90
1011.00	457.18
1012.00	484.49
1013.00	444.70
1014.00	454.06
1015.00	423.64
1016.00	431.44
1017.00	422.86
1018.00	424.42
1019.00	416.62
1020.00	419.74
1021.00	399.45
1022.00	395.55
1023.00	358.88
1024.00	391.65
1025.00	393.99
1026.00	439.24
1027.00	443.92
1028.00	424.42
1029.00	406.47
1030.00	390.87
1031.00	419.74
1032.00	447.82
1033.00	470.45
1034.00	439.24
1035.00	410.37
1036.00	387.75
1037.00	401.01
1038.00	386.97
1039.00	363.56
1040.00	370.58
1041.00	368.24
1042.00	391.65
1043.00	384.63
1044.00	397.89
1045.00	420.52
1046.00	438.46
1047.00	428.32
1048.00	386.19
1049.00	365.90
1050.00	362.00
1051.00	386.19
1052.00	406.47
1053.00	408.03
1054.00	393.99
1055.00	384.63
1056.00	402.57
1057.00	396.33
1058.00	381.51
1059.00	377.61
1060.00	391.65
1061.00	417.40
1062.00	407.25
1063.00	408.81
1064.00	385.41
1065.00	407.25
1066.00	397.11
1067.00	411.93
1068.00	404.13
1069.00	422.08
1070.00	440.02
1071.00	439.24
1072.00	404.91
1073.00	392.43
1074.00	382.29
1075.00	418.18
1076.00	409.59
1077.00	425.20
1078.00	434.56
1079.00	464.99
1080.00	473.57
1081.00	447.82
1082.00	429.10
1083.00	436.12
1084.00	436.12
1085.00	432.22
1086.00	423.64
1087.00	418.18
1088.00	401.79
1089.00	389.31
1090.00	400.23
1091.00	408.81
1092.00	405.69
1093.00	398.67
1094.00	437.68
1095.00	452.50
1096.00	454.06
1097.00	415.84
1098.00	404.91
1099.00	392.43
1100.00	401.79
1101.00	404.91
1102.00	436.12
1103.00	436.12
1104.00	408.03
1105.00	406.47
1106.00	397.11
1107.00	422.86
1108.00	431.44
1109.00	419.74
1110.00	411.15
1111.00	377.61
1112.00	387.75
1113.00	393.21
1114.00	381.51
1115.00	387.75
1116.00	379.95
1117.00	421.30
1118.00	425.20
1119.00	420.52
1120.00	413.49
1121.00	411.93
1122.00	445.48
1123.00	456.40
1124.00	458.74
1125.00	446.26
1126.00	431.44
1127.00	418.18
1128.00	397.89
1129.00	411.93
1130.00	427.54
1131.00	438.46
1132.00	437.68
1133.00	433.00
1134.00	427.54
1135.00	404.13
1136.00	398.67
1137.00	411.15
1138.00	420.52
1139.00	424.42
1140.00	440.02
1141.00	425.98
1142.00	427.54
1143.00	401.79
1144.00	424.42
1145.00	412.71
1146.00	436.12
1147.00	429.88
1148.00	447.82
1149.00	435.34
1150.00	429.88
1151.00	424.42
1152.00	429.88
1153.00	450.94
1154.00	399.45
1155.00	390.87
1156.00	365.12
1157.00	426.76
1158.00	415.84
1159.00	416.62
1160.00	402.57
1161.00	430.66
1162.00	422.08
1163.00	412.71
1164.00	383.07
1165.00	386.97
1166.00	397.89
1167.00	425.98
1168.00	439.24
1169.00	443.14
1170.00	436.90
1171.00	415.84
1172.00	406.47
1173.00	406.47
1174.00	429.10
1175.00	438.46
1176.00	446.26
1177.00	431.44
1178.00	436.12
1179.00	431.44
1180.00	473.57
1181.00	486.83
1182.00	500.09
1183.00	469.67
1184.00	476.69
1185.00	443.14
1186.00	449.38
1187.00	415.84
1188.00	411.15
1189.00	412.71
1190.00	418.18
1191.00	418.96
1192.00	419.74
1193.00	427.54
1194.00	411.93
1195.00	400.23
1196.00	390.09
1197.00	424.42
1198.00	454.06
1199.00	461.09
1200.00	472.79
1201.00	449.38
1202.00	440.02
1203.00	441.58
1204.00	429.10
1205.00	426.76
1206.00	395.55
1207.00	402.57
1208.00	418.96
1209.00	437.68
1210.00	477.47
1211.00	443.92
1212.00	425.98
1213.00	397.89
1214.00	424.42
1215.00	444.70
1216.00	420.52
1217.00	422.08
1218.00	401.79
1219.00	408.81
1220.00	373.71
1221.00	371.36
1222.00	380.73
1223.00	383.07
1224.00	412.71
1225.00	395.55
1226.00	431.44
1227.00	415.06
1228.00	418.96
1229.00	406.47
1230.00	411.93
1231.00	469.67
1232.00	455.62
1233.00	453.28
1234.00	398.67
1235.00	402.57
1236.00	405.69
1237.00	403.35
1238.00	428.32
1239.00	417.40
1240.00	424.42
1241.00	432.22
1242.00	428.32
1243.00	411.93
1244.00	391.65
1245.00	415.84
1246.00	422.86
1247.00	424.42
1248.00	418.18
1249.00	434.56
1250.00	418.18
1251.00	406.47
1252.00	406.47
1253.00	419.74
1254.00	429.10
1255.00	422.86
1256.00	424.42
1257.00	415.84
1258.00	452.50
1259.00	448.60
1260.00	465.77
1261.00	441.58
1262.00	468.11
1263.00	436.90
1264.00	420.52
1265.00	414.27
1266.00	442.36
1267.00	440.80
1268.00	418.18
1269.00	381.51
1270.00	394.77
1271.00	404.91
1272.00	457.18
1273.00	463.43
1274.00	452.50
1275.00	427.54
1276.00	422.08
1277.00	432.22
1278.00	436.12
1279.00	427.54
1280.00	415.06
1281.00	416.62
1282.00	400.23
1283.00	424.42
1284.00	410.37
1285.00	432.22
1286.00	411.15
1287.00	409.59
1288.00	393.99
1289.00	357.32
1290.00	365.90
1291.00	361.22
1292.00	404.91
1293.00	404.91
1294.00	406.47
1295.00	386.97
1296.00	387.75
1297.00	421.30
1298.00	460.31
1299.00	450.16
1300.00	454.06
1301.00	451.72
1302.00	450.94
1303.00	444.70
1304.00	422.86
1305.00	425.98
1306.00	404.91
1307.00	393.99
1308.00	410.37
1309.00	444.70
1310.00	450.16
1311.00	426.76
1312.00	420.52
1313.00	427.54
1314.00	431.44
1315.00	425.98
1316.00	442.36
1317.00	441.58
1318.00	426.76
1319.00	404.13
1320.00	416.62
1321.00	398.67
1322.00	428.32
1323.00	420.52
1324.00	431.44
1325.00	408.81
1326.00	420.52
1327.00	443.14
1328.00	479.03
1329.00	479.03
1330.00	475.91
1331.00	474.35
1332.00	489.17
1333.00	481.37
1334.00	461.87
1335.00	437.68
1336.00	426.76
1337.00	410.37
1338.00	425.98
1339.00	419.74
1340.00	408.81
1341.00	376.05
1342.00	376.83
1343.00	386.19
1344.00	400.23
1345.00	397.89
1346.00	379.17
1347.00	385.41
1348.00	372.15
1349.00	381.51
1350.00	366.68
1351.00	405.69
1352.00	403.35
1353.00	396.33
1354.00	372.15
1355.00	408.03
1356.00	437.68
1357.00	459.53
1358.00	436.90
1359.00	445.48
1360.00	430.66
1361.00	442.36
1362.00	411.15
1363.00	423.64
1364.00	411.15
1365.00	429.88
