SpectraSuite Data File
++++++++++++++++++++++++++++++++++++
Date: Thu Nov 16 14:27:24 EST 2017
User: cheriyan
Dark Spectrum Present: No
Reference Spectrum Present: No
Number of Sampled Component Spectra: 1
Spectrometers: USB2+H05261
Integration Time (usec): 100000 (USB2+H05261)
Spectra Averaged: 1 (USB2+H05261)
Boxcar Smoothing: 1 (USB2+H05261)
Correct for Electrical Dark: No (USB2+H05261)
Strobe/Lamp Enabled: No (USB2+H05261)
Correct for Detector Non-linearity: No (USB2+H05261)
Correct for Stray Light: No (USB2+H05261)
Number of Pixels in Processed Spectrum: 2048
>>>>>Begin Processed Spectral Data<<<<<
0.00	332.36
1.00	332.36
2.00	291.79
3.00	264.48
4.00	230.93
5.00	230.93
6.00	214.55
7.00	208.31
8.00	200.51
9.00	205.19
10.00	207.53
11.00	236.39
12.00	267.60
13.00	259.80
14.00	248.88
15.00	223.13
16.00	213.77
17.00	217.67
18.00	209.87
19.00	244.20
20.00	260.58
21.00	271.50
22.00	282.42
23.00	280.86
24.00	326.11
25.00	312.85
26.00	312.07
27.00	300.37
28.00	315.19
29.00	326.89
30.00	333.92
31.00	364.34
32.00	369.80
33.00	369.80
34.00	342.50
35.00	350.30
36.00	337.82
37.00	343.28
38.00	353.42
39.00	366.68
40.00	392.43
41.00	390.09
42.00	403.35
43.00	402.57
44.00	428.32
45.00	414.27
46.00	386.97
47.00	373.71
48.00	373.71
49.00	388.53
50.00	386.19
51.00	394.77
52.00	413.49
53.00	401.01
54.00	396.33
55.00	382.29
56.00	386.19
57.00	386.97
58.00	397.11
59.00	375.27
60.00	371.36
61.00	348.74
62.00	369.02
63.00	377.61
64.00	389.31
65.00	373.71
66.00	386.19
67.00	390.09
68.00	419.74
69.00	397.11
70.00	411.15
71.00	390.09
72.00	405.69
73.00	369.02
74.00	396.33
75.00	386.97
76.00	401.01
77.00	375.27
78.00	370.58
79.00	366.68
80.00	362.00
81.00	390.87
82.00	400.23
83.00	402.57
84.00	389.31
85.00	370.58
86.00	369.80
87.00	358.10
88.00	401.01
89.00	412.71
90.00	393.99
91.00	367.46
92.00	370.58
93.00	402.57
94.00	422.08
95.00	428.32
96.00	435.34
97.00	411.15
98.00	416.62
99.00	393.99
100.00	390.87
101.00	361.22
102.00	384.63
103.00	403.35
104.00	429.88
105.00	433.00
106.00	443.92
107.00	412.71
108.00	396.33
109.00	390.87
110.00	411.15
111.00	416.62
112.00	402.57
113.00	390.87
114.00	357.32
115.00	366.68
116.00	372.15
117.00	390.09
118.00	383.07
119.00	386.97
120.00	391.65
121.00	401.01
122.00	388.53
123.00	405.69
124.00	370.58
125.00	361.22
126.00	369.80
127.00	395.55
128.00	400.23
129.00	371.36
130.00	378.39
131.00	395.55
132.00	404.91
133.00	388.53
134.00	352.64
135.00	359.66
136.00	382.29
137.00	417.40
138.00	403.35
139.00	369.02
140.00	341.72
141.00	335.48
142.00	367.46
143.00	401.01
144.00	416.62
145.00	376.05
146.00	393.99
147.00	366.68
148.00	407.25
149.00	402.57
150.00	429.88
151.00	417.40
152.00	407.25
153.00	407.25
154.00	436.12
155.00	432.22
156.00	414.27
157.00	380.73
158.00	378.39
159.00	384.63
160.00	386.19
161.00	387.75
162.00	404.91
163.00	410.37
164.00	394.77
165.00	370.58
166.00	373.71
167.00	358.88
168.00	381.51
169.00	395.55
170.00	435.34
171.00	433.00
172.00	433.78
173.00	450.94
174.00	447.04
175.00	421.30
176.00	385.41
177.00	392.43
178.00	396.33
179.00	397.11
180.00	383.85
181.00	377.61
182.00	382.29
183.00	394.77
184.00	394.77
185.00	394.77
186.00	388.53
187.00	386.97
188.00	351.86
189.00	341.72
190.00	362.00
191.00	411.93
192.00	419.74
193.00	415.84
194.00	400.23
195.00	393.99
196.00	379.17
197.00	381.51
198.00	383.07
199.00	389.31
200.00	371.36
201.00	384.63
202.00	411.15
203.00	435.34
204.00	425.20
205.00	411.93
206.00	397.89
207.00	408.03
208.00	405.69
209.00	412.71
210.00	397.11
211.00	390.09
212.00	378.39
213.00	375.27
214.00	370.58
215.00	387.75
216.00	397.89
217.00	383.07
218.00	380.73
219.00	382.29
220.00	415.84
221.00	411.15
222.00	410.37
223.00	399.45
224.00	390.09
225.00	386.19
226.00	378.39
227.00	395.55
228.00	394.77
229.00	379.95
230.00	367.46
231.00	352.64
232.00	353.42
233.00	348.74
234.00	376.05
235.00	401.01
236.00	386.97
237.00	369.80
238.00	352.64
239.00	353.42
240.00	354.98
241.00	357.32
242.00	386.19
243.00	400.23
244.00	421.30
245.00	417.40
246.00	410.37
247.00	404.13
248.00	398.67
249.00	399.45
250.00	386.97
251.00	376.83
252.00	363.56
253.00	378.39
254.00	390.09
255.00	411.15
256.00	387.75
257.00	390.87
258.00	396.33
259.00	396.33
260.00	401.01
261.00	385.41
262.00	394.77
263.00	393.99
264.00	399.45
265.00	401.79
266.00	388.53
267.00	378.39
268.00	382.29
269.00	386.19
270.00	396.33
271.00	396.33
272.00	409.59
273.00	392.43
274.00	389.31
275.00	376.05
276.00	385.41
277.00	383.85
278.00	390.09
279.00	383.07
280.00	404.13
281.00	408.81
282.00	435.34
283.00	416.62
284.00	433.78
285.00	412.71
286.00	418.96
287.00	406.47
288.00	404.91
289.00	403.35
290.00	414.27
291.00	404.91
292.00	381.51
293.00	363.56
294.00	379.95
295.00	406.47
296.00	393.99
297.00	401.01
298.00	397.89
299.00	433.78
300.00	410.37
301.00	407.25
302.00	370.58
303.00	389.31
304.00	380.73
305.00	394.77
306.00	386.19
307.00	409.59
308.00	428.32
309.00	442.36
310.00	396.33
311.00	351.86
312.00	354.20
313.00	378.39
314.00	365.90
315.00	354.98
316.00	388.53
317.00	442.36
318.00	452.50
319.00	419.74
320.00	362.78
321.00	349.52
322.00	362.78
323.00	411.93
324.00	413.49
325.00	422.08
326.00	394.77
327.00	407.25
328.00	378.39
329.00	370.58
330.00	333.14
331.00	351.08
332.00	367.46
333.00	395.55
334.00	358.88
335.00	372.93
336.00	366.68
337.00	412.71
338.00	429.88
339.00	421.30
340.00	401.79
341.00	373.71
342.00	379.17
343.00	366.68
344.00	381.51
345.00	383.07
346.00	393.99
347.00	395.55
348.00	393.99
349.00	390.87
350.00	356.54
351.00	377.61
352.00	403.35
353.00	443.14
354.00	428.32
355.00	427.54
356.00	430.66
357.00	431.44
358.00	406.47
359.00	362.78
360.00	383.85
361.00	389.31
362.00	425.98
363.00	414.27
364.00	410.37
365.00	407.25
366.00	388.53
367.00	376.05
368.00	399.45
369.00	430.66
370.00	438.46
371.00	409.59
372.00	392.43
373.00	412.71
374.00	416.62
375.00	412.71
376.00	390.87
377.00	380.73
378.00	388.53
379.00	421.30
380.00	390.09
381.00	361.22
382.00	348.74
383.00	371.36
384.00	412.71
385.00	420.52
386.00	419.74
387.00	415.06
388.00	417.40
389.00	423.64
390.00	408.03
391.00	397.89
392.00	421.30
393.00	408.81
394.00	411.93
395.00	376.05
396.00	393.99
397.00	383.07
398.00	404.91
399.00	411.15
400.00	430.66
401.00	416.62
402.00	408.03
403.00	385.41
404.00	399.45
405.00	410.37
406.00	415.84
407.00	401.01
408.00	416.62
409.00	424.42
410.00	429.88
411.00	390.09
412.00	397.11
413.00	387.75
414.00	418.96
415.00	410.37
416.00	414.27
417.00	401.79
418.00	392.43
419.00	390.09
420.00	395.55
421.00	399.45
422.00	416.62
423.00	408.81
424.00	419.74
425.00	434.56
426.00	434.56
427.00	396.33
428.00	378.39
429.00	376.05
430.00	398.67
431.00	383.85
432.00	379.17
433.00	382.29
434.00	404.13
435.00	418.18
436.00	415.06
437.00	400.23
438.00	382.29
439.00	391.65
440.00	428.32
441.00	425.20
442.00	438.46
443.00	404.91
444.00	413.49
445.00	389.31
446.00	373.71
447.00	359.66
448.00	347.18
449.00	365.90
450.00	391.65
451.00	443.14
452.00	440.02
453.00	437.68
454.00	429.10
455.00	411.93
456.00	438.46
457.00	427.54
458.00	427.54
459.00	384.63
460.00	388.53
461.00	404.13
462.00	408.03
463.00	377.61
464.00	379.95
465.00	397.89
466.00	443.92
467.00	457.96
468.00	465.77
469.00	443.14
470.00	435.34
471.00	397.11
472.00	392.43
473.00	398.67
474.00	389.31
475.00	388.53
476.00	373.71
477.00	385.41
478.00	402.57
479.00	426.76
480.00	447.82
481.00	418.96
482.00	384.63
483.00	380.73
484.00	400.23
485.00	406.47
486.00	387.75
487.00	395.55
488.00	398.67
489.00	414.27
490.00	393.99
491.00	395.55
492.00	414.27
493.00	422.86
494.00	459.53
495.00	447.04
496.00	429.10
497.00	392.43
498.00	397.11
499.00	415.06
500.00	425.98
501.00	425.20
502.00	426.76
503.00	411.15
504.00	404.13
505.00	408.81
506.00	446.26
507.00	460.31
508.00	451.72
509.00	424.42
510.00	411.93
511.00	423.64
512.00	457.96
513.00	469.67
514.00	461.87
515.00	418.18
516.00	387.75
517.00	377.61
518.00	375.27
519.00	369.80
520.00	375.27
521.00	375.27
522.00	393.21
523.00	364.34
524.00	368.24
525.00	383.07
526.00	418.96
527.00	438.46
528.00	426.76
529.00	416.62
530.00	401.79
531.00	401.79
532.00	397.11
533.00	393.21
534.00	404.13
535.00	428.32
536.00	442.36
537.00	462.65
538.00	464.99
539.00	472.79
540.00	459.53
541.00	423.64
542.00	429.10
543.00	411.15
544.00	408.81
545.00	373.71
546.00	386.97
547.00	426.76
548.00	433.78
549.00	437.68
550.00	413.49
551.00	406.47
552.00	358.10
553.00	340.16
554.00	356.54
555.00	391.65
556.00	418.96
557.00	415.84
558.00	411.93
559.00	373.71
560.00	353.42
561.00	358.88
562.00	365.12
563.00	386.97
564.00	400.23
565.00	426.76
566.00	440.02
567.00	419.74
568.00	425.20
569.00	400.23
570.00	416.62
571.00	425.98
572.00	438.46
573.00	433.00
574.00	424.42
575.00	411.93
576.00	412.71
577.00	395.55
578.00	403.35
579.00	401.01
580.00	423.64
581.00	434.56
582.00	431.44
583.00	412.71
584.00	376.05
585.00	372.15
586.00	386.97
587.00	404.13
588.00	384.63
589.00	375.27
590.00	377.61
591.00	418.96
592.00	411.15
593.00	425.20
594.00	390.09
595.00	386.19
596.00	401.01
597.00	418.96
598.00	421.30
599.00	400.23
600.00	363.56
601.00	352.64
602.00	347.96
603.00	372.93
604.00	390.09
605.00	378.39
606.00	410.37
607.00	381.51
608.00	387.75
609.00	385.41
610.00	428.32
611.00	448.60
612.00	408.81
613.00	390.09
614.00	364.34
615.00	383.07
616.00	411.15
617.00	427.54
618.00	429.88
619.00	401.79
620.00	387.75
621.00	380.73
622.00	383.85
623.00	404.13
624.00	387.75
625.00	404.13
626.00	386.97
627.00	395.55
628.00	375.27
629.00	410.37
630.00	436.12
631.00	445.48
632.00	425.20
633.00	428.32
634.00	461.09
635.00	531.30
636.00	621.80
637.00	704.50
638.00	708.40
639.00	670.95
640.00	589.03
641.00	538.32
642.00	486.83
643.00	455.62
644.00	429.10
645.00	399.45
646.00	382.29
647.00	373.71
648.00	379.95
649.00	391.65
650.00	401.79
651.00	419.74
652.00	422.86
653.00	417.40
654.00	419.74
655.00	424.42
656.00	429.88
657.00	402.57
658.00	390.87
659.00	383.85
660.00	383.07
661.00	384.63
662.00	398.67
663.00	425.20
664.00	402.57
665.00	398.67
666.00	370.58
667.00	397.89
668.00	417.40
669.00	426.76
670.00	416.62
671.00	382.29
672.00	382.29
673.00	406.47
674.00	442.36
675.00	466.55
676.00	464.21
677.00	462.65
678.00	458.74
679.00	463.43
680.00	457.18
681.00	456.40
682.00	430.66
683.00	415.84
684.00	424.42
685.00	440.02
686.00	444.70
687.00	415.84
688.00	409.59
689.00	402.57
690.00	412.71
691.00	405.69
692.00	384.63
693.00	356.54
694.00	354.98
695.00	366.68
696.00	411.93
697.00	436.90
698.00	451.72
699.00	442.36
700.00	437.68
701.00	447.82
702.00	434.56
703.00	412.71
704.00	401.01
705.00	393.99
706.00	397.11
707.00	386.19
708.00	407.25
709.00	428.32
710.00	433.00
711.00	395.55
712.00	392.43
713.00	386.97
714.00	404.13
715.00	386.97
716.00	419.74
717.00	450.16
718.00	491.51
719.00	472.01
720.00	476.69
721.00	450.94
722.00	489.95
723.00	489.95
724.00	466.55
725.00	427.54
726.00	407.25
727.00	435.34
728.00	415.06
729.00	418.96
730.00	394.77
731.00	391.65
732.00	370.58
733.00	369.02
734.00	399.45
735.00	423.64
736.00	417.40
737.00	390.09
738.00	382.29
739.00	389.31
740.00	404.91
741.00	414.27
742.00	439.24
743.00	483.71
744.00	460.31
745.00	430.66
746.00	376.05
747.00	401.01
748.00	411.15
749.00	432.22
750.00	431.44
751.00	428.32
752.00	411.15
753.00	393.99
754.00	382.29
755.00	385.41
756.00	376.05
757.00	381.51
758.00	365.12
759.00	387.75
760.00	403.35
761.00	425.98
762.00	418.18
763.00	427.54
764.00	422.86
765.00	420.52
766.00	392.43
767.00	396.33
768.00	376.05
769.00	382.29
770.00	401.79
771.00	417.40
772.00	447.82
773.00	443.92
774.00	435.34
775.00	433.00
776.00	415.06
777.00	442.36
778.00	425.98
779.00	423.64
780.00	407.25
781.00	411.93
782.00	417.40
783.00	485.27
784.00	500.87
785.00	504.78
786.00	452.50
787.00	427.54
788.00	401.79
789.00	371.36
790.00	365.90
791.00	375.27
792.00	369.80
793.00	365.12
794.00	383.85
795.00	411.15
796.00	421.30
797.00	403.35
798.00	406.47
799.00	399.45
800.00	420.52
801.00	404.91
802.00	402.57
803.00	382.29
804.00	362.78
805.00	369.02
806.00	379.95
807.00	403.35
808.00	410.37
809.00	396.33
810.00	428.32
811.00	429.10
812.00	440.02
813.00	408.03
814.00	417.40
815.00	406.47
816.00	426.76
817.00	402.57
818.00	404.91
819.00	376.83
820.00	386.97
821.00	393.99
822.00	415.84
823.00	421.30
824.00	410.37
825.00	397.11
826.00	390.09
827.00	390.87
828.00	359.66
829.00	366.68
830.00	373.71
831.00	380.73
832.00	374.49
833.00	379.95
834.00	404.91
835.00	398.67
836.00	394.77
837.00	376.83
838.00	382.29
839.00	365.12
840.00	384.63
841.00	379.17
842.00	406.47
843.00	379.95
844.00	400.23
845.00	379.95
846.00	413.49
847.00	395.55
848.00	404.91
849.00	406.47
850.00	422.08
851.00	413.49
852.00	397.11
853.00	390.87
854.00	404.13
855.00	381.51
856.00	375.27
857.00	369.02
858.00	404.91
859.00	418.96
860.00	415.84
861.00	380.73
862.00	362.78
863.00	368.24
864.00	408.03
865.00	411.93
866.00	414.27
867.00	379.95
868.00	375.27
869.00	372.15
870.00	413.49
871.00	441.58
872.00	421.30
873.00	390.87
874.00	376.05
875.00	393.21
876.00	414.27
877.00	414.27
878.00	440.02
879.00	402.57
880.00	393.21
881.00	374.49
882.00	406.47
883.00	427.54
884.00	427.54
885.00	404.91
886.00	400.23
887.00	390.09
888.00	416.62
889.00	424.42
890.00	449.38
891.00	437.68
892.00	433.00
893.00	404.13
894.00	393.21
895.00	370.58
896.00	405.69
897.00	405.69
898.00	405.69
899.00	392.43
900.00	396.33
901.00	416.62
902.00	416.62
903.00	423.64
904.00	400.23
905.00	396.33
906.00	406.47
907.00	416.62
908.00	395.55
909.00	724.01
910.00	751.31
911.00	748.97
912.00	408.03
913.00	354.20
914.00	353.42
915.00	350.30
916.00	383.07
917.00	412.71
918.00	422.08
919.00	440.02
920.00	424.42
921.00	454.84
922.00	415.84
923.00	424.42
924.00	411.93
925.00	425.98
926.00	403.35
927.00	392.43
928.00	407.25
929.00	418.96
930.00	401.79
931.00	393.21
932.00	393.21
933.00	392.43
934.00	374.49
935.00	385.41
936.00	389.31
937.00	390.87
938.00	387.75
939.00	384.63
940.00	419.74
941.00	421.30
942.00	435.34
943.00	422.86
944.00	424.42
945.00	421.30
946.00	401.79
947.00	411.15
948.00	425.20
949.00	438.46
950.00	420.52
951.00	393.21
952.00	365.12
953.00	383.07
954.00	400.23
955.00	425.20
956.00	418.96
957.00	415.06
958.00	422.86
959.00	440.80
960.00	437.68
961.00	415.84
962.00	394.77
963.00	404.91
964.00	408.81
965.00	415.84
966.00	404.91
967.00	405.69
968.00	398.67
969.00	388.53
970.00	389.31
971.00	386.97
972.00	401.79
973.00	424.42
974.00	435.34
975.00	427.54
976.00	413.49
977.00	414.27
978.00	383.07
979.00	386.97
980.00	353.42
981.00	362.78
982.00	362.78
983.00	368.24
984.00	390.87
985.00	382.29
986.00	406.47
987.00	404.91
988.00	408.81
989.00	410.37
990.00	412.71
991.00	375.27
992.00	358.10
993.00	333.14
994.00	397.11
995.00	392.43
996.00	430.66
997.00	409.59
998.00	409.59
999.00	414.27
1000.00	391.65
1001.00	414.27
1002.00	405.69
1003.00	420.52
1004.00	389.31
1005.00	369.80
1006.00	369.80
1007.00	388.53
1008.00	414.27
1009.00	429.88
1010.00	450.94
1011.00	440.80
1012.00	422.08
1013.00	386.97
1014.00	383.85
1015.00	378.39
1016.00	413.49
1017.00	442.36
1018.00	433.78
1019.00	416.62
1020.00	379.95
1021.00	408.03
1022.00	393.99
1023.00	379.95
1024.00	376.83
1025.00	383.85
1026.00	417.40
1027.00	405.69
1028.00	399.45
1029.00	373.71
1030.00	408.03
1031.00	436.12
1032.00	454.84
1033.00	410.37
1034.00	398.67
1035.00	403.35
1036.00	400.23
1037.00	371.36
1038.00	355.76
1039.00	354.98
1040.00	386.97
1041.00	383.85
1042.00	397.89
1043.00	373.71
1044.00	359.66
1045.00	383.07
1046.00	402.57
1047.00	433.00
1048.00	422.86
1049.00	426.76
1050.00	409.59
1051.00	393.21
1052.00	372.93
1053.00	369.02
1054.00	361.22
1055.00	354.98
1056.00	352.64
1057.00	383.85
1058.00	406.47
1059.00	429.10
1060.00	422.08
1061.00	415.06
1062.00	389.31
1063.00	393.21
1064.00	379.17
1065.00	404.13
1066.00	373.71
1067.00	383.85
1068.00	383.07
1069.00	397.89
1070.00	404.13
1071.00	415.84
1072.00	408.81
1073.00	416.62
1074.00	414.27
1075.00	390.09
1076.00	403.35
1077.00	381.51
1078.00	411.15
1079.00	421.30
1080.00	429.10
1081.00	453.28
1082.00	434.56
1083.00	455.62
1084.00	420.52
1085.00	400.23
1086.00	391.65
1087.00	417.40
1088.00	405.69
1089.00	397.89
1090.00	399.45
1091.00	447.82
1092.00	431.44
1093.00	403.35
1094.00	392.43
1095.00	406.47
1096.00	439.24
1097.00	428.32
1098.00	427.54
1099.00	421.30
1100.00	418.18
1101.00	429.10
1102.00	436.90
1103.00	426.76
1104.00	409.59
1105.00	400.23
1106.00	408.03
1107.00	418.96
1108.00	422.08
1109.00	408.81
1110.00	386.97
1111.00	380.73
1112.00	390.87
1113.00	420.52
1114.00	408.03
1115.00	406.47
1116.00	400.23
1117.00	397.89
1118.00	395.55
1119.00	397.89
1120.00	406.47
1121.00	418.18
1122.00	422.08
1123.00	449.38
1124.00	435.34
1125.00	417.40
1126.00	410.37
1127.00	411.93
1128.00	424.42
1129.00	408.03
1130.00	408.81
1131.00	397.89
1132.00	408.81
1133.00	411.15
1134.00	401.01
1135.00	374.49
1136.00	389.31
1137.00	412.71
1138.00	401.01
1139.00	419.74
1140.00	410.37
1141.00	441.58
1142.00	387.75
1143.00	390.09
1144.00	379.95
1145.00	405.69
1146.00	403.35
1147.00	418.18
1148.00	425.20
1149.00	442.36
1150.00	447.04
1151.00	431.44
1152.00	425.20
1153.00	430.66
1154.00	443.92
1155.00	428.32
1156.00	418.18
1157.00	392.43
1158.00	382.29
1159.00	371.36
1160.00	376.05
1161.00	387.75
1162.00	408.03
1163.00	436.90
1164.00	472.79
1165.00	477.47
1166.00	457.96
1167.00	420.52
1168.00	397.11
1169.00	408.81
1170.00	401.79
1171.00	390.87
1172.00	380.73
1173.00	395.55
1174.00	412.71
1175.00	419.74
1176.00	437.68
1177.00	438.46
1178.00	455.62
1179.00	425.98
1180.00	408.81
1181.00	400.23
1182.00	410.37
1183.00	453.28
1184.00	464.99
1185.00	486.83
1186.00	432.22
1187.00	410.37
1188.00	376.05
1189.00	404.13
1190.00	414.27
1191.00	441.58
1192.00	417.40
1193.00	409.59
1194.00	382.29
1195.00	417.40
1196.00	408.03
1197.00	406.47
1198.00	401.01
1199.00	397.89
1200.00	432.22
1201.00	443.14
1202.00	461.09
1203.00	447.82
1204.00	421.30
1205.00	424.42
1206.00	399.45
1207.00	409.59
1208.00	415.84
1209.00	444.70
1210.00	447.04
1211.00	450.16
1212.00	450.16
1213.00	441.58
1214.00	401.01
1215.00	379.17
1216.00	370.58
1217.00	411.15
1218.00	421.30
1219.00	436.12
1220.00	445.48
1221.00	422.08
1222.00	428.32
1223.00	386.19
1224.00	396.33
1225.00	402.57
1226.00	390.09
1227.00	397.11
1228.00	383.07
1229.00	399.45
1230.00	421.30
1231.00	435.34
1232.00	454.84
1233.00	461.09
1234.00	447.82
1235.00	441.58
1236.00	406.47
1237.00	404.91
1238.00	418.18
1239.00	429.88
1240.00	418.96
1241.00	394.77
1242.00	411.93
1243.00	449.38
1244.00	459.53
1245.00	449.38
1246.00	400.23
1247.00	399.45
1248.00	390.87
1249.00	418.18
1250.00	405.69
1251.00	391.65
1252.00	369.80
1253.00	373.71
1254.00	414.27
1255.00	418.18
1256.00	408.81
1257.00	377.61
1258.00	395.55
1259.00	428.32
1260.00	438.46
1261.00	424.42
1262.00	408.81
1263.00	404.13
1264.00	426.76
1265.00	420.52
1266.00	427.54
1267.00	417.40
1268.00	418.18
1269.00	437.68
1270.00	444.70
1271.00	464.21
1272.00	453.28
1273.00	418.96
1274.00	401.79
1275.00	386.19
1276.00	419.74
1277.00	422.86
1278.00	414.27
1279.00	380.73
1280.00	373.71
1281.00	401.01
1282.00	439.24
1283.00	452.50
1284.00	450.94
1285.00	454.84
1286.00	443.14
1287.00	440.80
1288.00	431.44
1289.00	447.04
1290.00	443.92
1291.00	450.16
1292.00	439.24
1293.00	447.82
1294.00	432.22
1295.00	405.69
1296.00	398.67
1297.00	392.43
1298.00	433.00
1299.00	430.66
1300.00	455.62
1301.00	450.94
1302.00	437.68
1303.00	416.62
1304.00	418.96
1305.00	422.86
1306.00	412.71
1307.00	412.71
1308.00	391.65
1309.00	403.35
1310.00	383.85
1311.00	380.73
1312.00	383.07
1313.00	389.31
1314.00	409.59
1315.00	390.09
1316.00	372.15
1317.00	362.78
1318.00	367.46
1319.00	397.89
1320.00	414.27
1321.00	418.96
1322.00	407.25
1323.00	387.75
1324.00	397.11
1325.00	403.35
1326.00	428.32
1327.00	429.88
1328.00	450.94
1329.00	465.77
1330.00	472.79
1331.00	481.37
1332.00	449.38
1333.00	459.53
1334.00	439.24
1335.00	469.67
1336.00	442.36
1337.00	422.08
1338.00	416.62
1339.00	429.88
1340.00	451.72
1341.00	434.56
1342.00	418.18
1343.00	403.35
1344.00	408.03
1345.00	416.62
1346.00	395.55
1347.00	384.63
1348.00	398.67
1349.00	425.98
1350.00	411.15
1351.00	389.31
1352.00	372.15
1353.00	377.61
1354.00	364.34
1355.00	360.44
1356.00	373.71
1357.00	390.87
1358.00	379.95
1359.00	390.09
1360.00	396.33
1361.00	442.36
1362.00	437.68
1363.00	417.40
1364.00	415.84
1365.00	433.78
