SpectraSuite Data File
++++++++++++++++++++++++++++++++++++
Date: Thu Nov 16 14:27:20 EST 2017
User: cheriyan
Dark Spectrum Present: No
Reference Spectrum Present: No
Number of Sampled Component Spectra: 1
Spectrometers: USB2+H05261
Integration Time (usec): 100000 (USB2+H05261)
Spectra Averaged: 1 (USB2+H05261)
Boxcar Smoothing: 1 (USB2+H05261)
Correct for Electrical Dark: No (USB2+H05261)
Strobe/Lamp Enabled: No (USB2+H05261)
Correct for Detector Non-linearity: No (USB2+H05261)
Correct for Stray Light: No (USB2+H05261)
Number of Pixels in Processed Spectrum: 2048
>>>>>Begin Processed Spectral Data<<<<<
0.00	311.29
1.00	311.29
2.00	293.35
3.00	255.12
4.00	225.47
5.00	203.63
6.00	203.63
7.00	209.09
8.00	208.31
9.00	195.82
10.00	175.54
11.00	182.56
12.00	196.60
13.00	216.89
14.00	235.61
15.00	257.46
16.00	255.12
17.00	242.64
18.00	239.51
19.00	243.42
20.00	252.00
21.00	244.20
22.00	276.18
23.00	273.84
24.00	287.89
25.00	294.91
26.00	330.80
27.00	372.15
28.00	358.10
29.00	372.93
30.00	357.32
31.00	396.33
32.00	387.75
33.00	395.55
34.00	372.15
35.00	378.39
36.00	363.56
37.00	375.27
38.00	358.10
39.00	359.66
40.00	352.64
41.00	382.29
42.00	413.49
43.00	424.42
44.00	411.15
45.00	401.01
46.00	372.15
47.00	387.75
48.00	386.97
49.00	408.03
50.00	401.01
51.00	416.62
52.00	435.34
53.00	423.64
54.00	406.47
55.00	379.95
56.00	375.27
57.00	374.49
58.00	413.49
59.00	441.58
60.00	436.90
61.00	408.03
62.00	378.39
63.00	401.01
64.00	407.25
65.00	389.31
66.00	369.80
67.00	364.34
68.00	387.75
69.00	383.85
70.00	390.09
71.00	425.98
72.00	407.25
73.00	423.64
74.00	377.61
75.00	376.05
76.00	344.06
77.00	367.46
78.00	416.62
79.00	453.28
80.00	462.65
81.00	422.86
82.00	380.73
83.00	365.90
84.00	369.80
85.00	372.93
86.00	399.45
87.00	423.64
88.00	436.12
89.00	399.45
90.00	401.01
91.00	388.53
92.00	401.01
93.00	400.23
94.00	404.91
95.00	403.35
96.00	378.39
97.00	379.17
98.00	367.46
99.00	369.80
100.00	372.93
101.00	372.15
102.00	376.83
103.00	379.17
104.00	383.85
105.00	384.63
106.00	373.71
107.00	384.63
108.00	383.07
109.00	413.49
110.00	386.19
111.00	408.81
112.00	392.43
113.00	397.11
114.00	372.93
115.00	350.30
116.00	366.68
117.00	353.42
118.00	365.90
119.00	359.66
120.00	393.99
121.00	399.45
122.00	406.47
123.00	378.39
124.00	372.93
125.00	362.00
126.00	358.88
127.00	365.12
128.00	366.68
129.00	401.01
130.00	369.02
131.00	365.12
132.00	352.64
133.00	399.45
134.00	407.25
135.00	411.93
136.00	397.11
137.00	398.67
138.00	373.71
139.00	370.58
140.00	372.15
141.00	381.51
142.00	401.01
143.00	408.81
144.00	394.77
145.00	358.10
146.00	354.20
147.00	386.19
148.00	409.59
149.00	393.21
150.00	378.39
151.00	386.97
152.00	393.21
153.00	400.23
154.00	393.21
155.00	395.55
156.00	395.55
157.00	391.65
158.00	428.32
159.00	435.34
160.00	434.56
161.00	396.33
162.00	401.01
163.00	404.13
164.00	418.96
165.00	410.37
166.00	402.57
167.00	406.47
168.00	398.67
169.00	427.54
170.00	440.80
171.00	448.60
172.00	430.66
173.00	411.15
174.00	412.71
175.00	389.31
176.00	376.83
177.00	383.85
178.00	396.33
179.00	407.25
180.00	391.65
181.00	397.11
182.00	392.43
183.00	407.25
184.00	417.40
185.00	422.86
186.00	404.13
187.00	404.91
188.00	409.59
189.00	404.91
190.00	403.35
191.00	389.31
192.00	395.55
193.00	377.61
194.00	378.39
195.00	393.21
196.00	425.20
197.00	455.62
198.00	454.06
199.00	407.25
200.00	382.29
201.00	403.35
202.00	403.35
203.00	372.93
204.00	338.60
205.00	370.58
206.00	407.25
207.00	414.27
208.00	418.96
209.00	433.00
210.00	469.67
211.00	465.77
212.00	436.90
213.00	393.99
214.00	386.19
215.00	401.79
216.00	405.69
217.00	403.35
218.00	414.27
219.00	431.44
220.00	418.96
221.00	404.91
222.00	365.12
223.00	376.05
224.00	347.18
225.00	374.49
226.00	350.30
227.00	354.20
228.00	344.84
229.00	374.49
230.00	398.67
231.00	409.59
232.00	406.47
233.00	411.93
234.00	411.15
235.00	404.13
236.00	371.36
237.00	354.98
238.00	351.08
239.00	362.00
240.00	369.80
241.00	358.10
242.00	383.07
243.00	378.39
244.00	422.08
245.00	414.27
246.00	407.25
247.00	394.77
248.00	397.11
249.00	413.49
250.00	390.87
251.00	397.11
252.00	413.49
253.00	432.22
254.00	428.32
255.00	412.71
256.00	405.69
257.00	383.07
258.00	391.65
259.00	395.55
260.00	404.13
261.00	392.43
262.00	412.71
263.00	410.37
264.00	392.43
265.00	372.15
266.00	369.02
267.00	404.13
268.00	383.85
269.00	404.91
270.00	385.41
271.00	402.57
272.00	408.03
273.00	396.33
274.00	400.23
275.00	379.95
276.00	401.79
277.00	408.81
278.00	415.06
279.00	414.27
280.00	411.15
281.00	415.84
282.00	383.85
283.00	397.11
284.00	380.73
285.00	397.11
286.00	378.39
287.00	372.15
288.00	383.85
289.00	390.09
290.00	386.97
291.00	370.58
292.00	370.58
293.00	375.27
294.00	369.02
295.00	367.46
296.00	373.71
297.00	390.87
298.00	389.31
299.00	404.13
300.00	378.39
301.00	362.78
302.00	353.42
303.00	398.67
304.00	440.80
305.00	436.12
306.00	422.08
307.00	386.97
308.00	398.67
309.00	400.23
310.00	401.01
311.00	392.43
312.00	402.57
313.00	415.84
314.00	408.03
315.00	397.89
316.00	378.39
317.00	386.97
318.00	387.75
319.00	391.65
320.00	392.43
321.00	385.41
322.00	386.19
323.00	374.49
324.00	371.36
325.00	384.63
326.00	389.31
327.00	391.65
328.00	379.95
329.00	390.09
330.00	387.75
331.00	377.61
332.00	370.58
333.00	375.27
334.00	367.46
335.00	379.17
336.00	371.36
337.00	395.55
338.00	375.27
339.00	374.49
340.00	376.05
341.00	395.55
342.00	434.56
343.00	422.86
344.00	420.52
345.00	405.69
346.00	402.57
347.00	396.33
348.00	394.77
349.00	404.91
350.00	408.81
351.00	426.76
352.00	420.52
353.00	430.66
354.00	393.99
355.00	405.69
356.00	380.73
357.00	379.17
358.00	368.24
359.00	389.31
360.00	394.77
361.00	382.29
362.00	384.63
363.00	379.95
364.00	383.85
365.00	369.80
366.00	382.29
367.00	382.29
368.00	420.52
369.00	406.47
370.00	418.18
371.00	383.07
372.00	389.31
373.00	406.47
374.00	395.55
375.00	405.69
376.00	401.79
377.00	422.86
378.00	398.67
379.00	366.68
380.00	347.96
381.00	381.51
382.00	394.77
383.00	395.55
384.00	400.23
385.00	408.81
386.00	402.57
387.00	362.78
388.00	344.84
389.00	366.68
390.00	362.00
391.00	379.95
392.00	376.83
393.00	397.89
394.00	416.62
395.00	416.62
396.00	440.80
397.00	436.12
398.00	444.70
399.00	415.84
400.00	390.87
401.00	370.58
402.00	362.78
403.00	376.05
404.00	385.41
405.00	393.21
406.00	383.07
407.00	376.83
408.00	389.31
409.00	397.11
410.00	405.69
411.00	393.99
412.00	383.07
413.00	379.17
414.00	363.56
415.00	370.58
416.00	357.32
417.00	376.83
418.00	383.85
419.00	368.24
420.00	370.58
421.00	372.15
422.00	415.06
423.00	425.20
424.00	439.24
425.00	434.56
426.00	404.13
427.00	400.23
428.00	391.65
429.00	415.06
430.00	381.51
431.00	381.51
432.00	373.71
433.00	390.87
434.00	402.57
435.00	408.81
436.00	413.49
437.00	383.85
438.00	372.15
439.00	371.36
440.00	373.71
441.00	369.80
442.00	398.67
443.00	414.27
444.00	433.00
445.00	402.57
446.00	397.11
447.00	394.77
448.00	418.96
449.00	438.46
450.00	461.09
451.00	430.66
452.00	408.81
453.00	400.23
454.00	396.33
455.00	405.69
456.00	411.15
457.00	424.42
458.00	397.11
459.00	386.97
460.00	385.41
461.00	402.57
462.00	382.29
463.00	386.97
464.00	393.99
465.00	420.52
466.00	425.98
467.00	425.20
468.00	397.89
469.00	408.81
470.00	422.08
471.00	443.92
472.00	418.96
473.00	405.69
474.00	374.49
475.00	385.41
476.00	390.87
477.00	418.18
478.00	400.23
479.00	415.06
480.00	402.57
481.00	453.28
482.00	457.18
483.00	472.01
484.00	417.40
485.00	401.01
486.00	406.47
487.00	436.12
488.00	438.46
489.00	426.76
490.00	425.98
491.00	412.71
492.00	408.03
493.00	394.77
494.00	416.62
495.00	406.47
496.00	403.35
497.00	384.63
498.00	405.69
499.00	387.75
500.00	407.25
501.00	390.09
502.00	399.45
503.00	364.34
504.00	390.09
505.00	395.55
506.00	416.62
507.00	415.84
508.00	447.82
509.00	458.75
510.00	450.94
511.00	425.20
512.00	452.50
513.00	433.78
514.00	428.32
515.00	367.46
516.00	366.68
517.00	362.78
518.00	369.80
519.00	369.02
520.00	364.34
521.00	371.36
522.00	397.11
523.00	415.84
524.00	432.22
525.00	412.71
526.00	413.49
527.00	419.74
528.00	407.25
529.00	377.61
530.00	343.28
531.00	358.88
532.00	372.93
533.00	397.11
534.00	406.47
535.00	414.27
536.00	405.69
537.00	411.93
538.00	419.74
539.00	459.53
540.00	443.14
541.00	428.32
542.00	393.99
543.00	405.69
544.00	411.15
545.00	399.45
546.00	390.09
547.00	374.49
548.00	388.53
549.00	376.05
550.00	370.58
551.00	375.27
552.00	383.07
553.00	401.79
554.00	416.62
555.00	407.25
556.00	405.69
557.00	394.77
558.00	411.15
559.00	425.20
560.00	418.96
561.00	396.33
562.00	353.42
563.00	346.40
564.00	371.36
565.00	425.98
566.00	423.64
567.00	434.56
568.00	406.47
569.00	422.86
570.00	415.84
571.00	453.28
572.00	445.48
573.00	465.77
574.00	450.94
575.00	429.88
576.00	399.45
577.00	383.07
578.00	385.41
579.00	369.80
580.00	386.97
581.00	372.15
582.00	387.75
583.00	373.71
584.00	408.81
585.00	409.59
586.00	410.37
587.00	397.89
588.00	383.85
589.00	372.15
590.00	371.36
591.00	404.13
592.00	424.42
593.00	401.79
594.00	386.19
595.00	375.27
596.00	392.43
597.00	362.00
598.00	363.56
599.00	350.30
600.00	369.80
601.00	369.02
602.00	390.87
603.00	378.39
604.00	379.17
605.00	390.09
606.00	406.47
607.00	398.67
608.00	392.43
609.00	401.01
610.00	391.65
611.00	394.77
612.00	376.83
613.00	389.31
614.00	376.05
615.00	378.39
616.00	403.35
617.00	404.13
618.00	418.96
619.00	381.51
620.00	405.69
621.00	408.03
622.00	421.30
623.00	397.11
624.00	404.13
625.00	411.93
626.00	413.49
627.00	389.31
628.00	414.27
629.00	440.02
630.00	429.10
631.00	413.49
632.00	391.65
633.00	425.98
634.00	461.09
635.00	540.66
636.00	616.34
637.00	658.47
638.00	651.45
639.00	613.22
640.00	543.78
641.00	501.65
642.00	462.65
643.00	446.26
644.00	441.58
645.00	440.02
646.00	445.48
647.00	425.20
648.00	423.64
649.00	415.06
650.00	410.37
651.00	408.03
652.00	394.77
653.00	404.91
654.00	427.54
655.00	457.96
656.00	466.55
657.00	423.64
658.00	407.25
659.00	368.24
660.00	401.79
661.00	376.83
662.00	428.32
663.00	431.44
664.00	450.94
665.00	429.10
666.00	398.67
667.00	407.25
668.00	390.09
669.00	405.69
670.00	398.67
671.00	410.37
672.00	406.47
673.00	417.40
674.00	424.42
675.00	461.09
676.00	475.91
677.00	491.51
678.00	474.35
679.00	447.82
680.00	436.90
681.00	408.81
682.00	388.53
683.00	363.56
684.00	361.22
685.00	389.31
686.00	417.40
687.00	425.98
688.00	410.37
689.00	388.53
690.00	387.75
691.00	402.57
692.00	382.29
693.00	365.90
694.00	366.68
695.00	390.09
696.00	404.13
697.00	429.10
698.00	412.71
699.00	422.86
700.00	396.33
701.00	418.96
702.00	422.86
703.00	416.62
704.00	419.74
705.00	406.47
706.00	424.42
707.00	401.01
708.00	404.91
709.00	390.87
710.00	406.47
711.00	390.87
712.00	380.73
713.00	400.23
714.00	430.66
715.00	424.42
716.00	411.93
717.00	382.29
718.00	464.21
719.00	464.99
720.00	496.97
721.00	436.12
722.00	450.94
723.00	456.40
724.00	450.94
725.00	450.16
726.00	440.02
727.00	438.46
728.00	406.47
729.00	390.09
730.00	405.69
731.00	417.40
732.00	411.15
733.00	394.77
734.00	379.17
735.00	400.23
736.00	412.71
737.00	431.44
738.00	438.46
739.00	419.74
740.00	412.71
741.00	401.79
742.00	414.27
743.00	455.62
744.00	452.50
745.00	455.62
746.00	431.44
747.00	404.13
748.00	406.47
749.00	384.63
750.00	415.06
751.00	403.35
752.00	405.69
753.00	408.03
754.00	425.20
755.00	437.68
756.00	425.98
757.00	431.44
758.00	429.10
759.00	440.80
760.00	434.56
761.00	420.52
762.00	423.64
763.00	404.13
764.00	417.40
765.00	403.35
766.00	404.13
767.00	409.59
768.00	409.59
769.00	401.79
770.00	402.57
771.00	419.74
772.00	440.02
773.00	434.56
774.00	414.27
775.00	417.40
776.00	405.69
777.00	418.18
778.00	401.79
779.00	429.10
780.00	423.64
781.00	423.64
782.00	404.91
783.00	450.16
784.00	457.18
785.00	459.53
786.00	406.47
787.00	393.99
788.00	386.19
789.00	387.75
790.00	386.19
791.00	373.71
792.00	379.95
793.00	390.87
794.00	402.57
795.00	408.03
796.00	398.67
797.00	394.77
798.00	401.01
799.00	398.67
800.00	398.67
801.00	402.57
802.00	433.00
803.00	436.12
804.00	412.71
805.00	397.89
806.00	410.37
807.00	403.35
808.00	411.15
809.00	429.88
810.00	440.02
811.00	443.92
812.00	408.81
813.00	393.99
814.00	399.45
815.00	437.68
816.00	457.96
817.00	443.14
818.00	404.91
819.00	404.13
820.00	395.55
821.00	417.40
822.00	423.64
823.00	414.27
824.00	394.77
825.00	372.93
826.00	364.34
827.00	377.61
828.00	393.21
829.00	423.64
830.00	423.64
831.00	416.62
832.00	405.69
833.00	402.57
834.00	397.89
835.00	417.40
836.00	408.81
837.00	417.40
838.00	401.01
839.00	404.13
840.00	380.73
841.00	378.39
842.00	388.53
843.00	422.08
844.00	432.22
845.00	418.18
846.00	404.13
847.00	404.13
848.00	415.06
849.00	414.27
850.00	398.67
851.00	376.05
852.00	383.85
853.00	382.29
854.00	377.61
855.00	383.07
856.00	382.29
857.00	408.03
858.00	391.65
859.00	390.87
860.00	376.05
861.00	381.51
862.00	435.34
863.00	447.04
864.00	450.16
865.00	410.37
866.00	415.84
867.00	415.06
868.00	427.54
869.00	414.27
870.00	390.87
871.00	377.61
872.00	392.43
873.00	425.98
874.00	393.21
875.00	373.71
876.00	369.80
877.00	407.25
878.00	416.62
879.00	399.45
880.00	390.87
881.00	393.99
882.00	411.15
883.00	436.12
884.00	426.76
885.00	409.59
886.00	422.86
887.00	415.84
888.00	420.52
889.00	390.87
890.00	417.40
891.00	398.67
892.00	390.09
893.00	383.07
894.00	399.45
895.00	395.55
896.00	388.53
897.00	387.75
898.00	400.23
899.00	408.81
900.00	414.27
901.00	382.29
902.00	362.78
903.00	372.93
904.00	386.19
905.00	390.09
906.00	389.31
907.00	393.21
908.00	391.65
909.00	720.88
910.00	767.70
911.00	794.22
912.00	482.15
913.00	443.92
914.00	412.71
915.00	386.19
916.00	383.85
917.00	418.18
918.00	423.64
919.00	427.54
920.00	418.96
921.00	419.74
922.00	400.23
923.00	386.97
924.00	381.51
925.00	392.43
926.00	389.31
927.00	411.93
928.00	421.30
929.00	436.12
930.00	401.79
931.00	375.27
932.00	356.54
933.00	370.58
934.00	376.05
935.00	387.75
936.00	393.21
937.00	409.59
938.00	443.14
939.00	443.14
940.00	450.16
941.00	425.20
942.00	404.13
943.00	404.13
944.00	409.59
945.00	411.15
946.00	415.84
947.00	401.01
948.00	422.08
949.00	401.79
950.00	394.77
951.00	372.93
952.00	379.17
953.00	390.09
954.00	387.75
955.00	386.97
956.00	400.23
957.00	411.15
958.00	425.20
959.00	409.59
960.00	424.42
961.00	422.08
962.00	411.93
963.00	414.27
964.00	422.86
965.00	421.30
966.00	427.54
967.00	411.93
968.00	384.63
969.00	371.36
970.00	368.24
971.00	391.65
972.00	365.90
973.00	370.58
974.00	390.87
975.00	415.06
976.00	392.43
977.00	368.24
978.00	365.90
979.00	388.53
980.00	420.52
981.00	409.59
982.00	409.59
983.00	397.11
984.00	397.11
985.00	393.21
986.00	406.47
987.00	405.69
988.00	393.99
989.00	380.73
990.00	386.19
991.00	375.27
992.00	355.76
993.00	376.05
994.00	401.79
995.00	435.34
996.00	418.18
997.00	424.42
998.00	399.45
999.00	425.98
1000.00	414.27
1001.00	415.84
1002.00	386.19
1003.00	376.05
1004.00	405.69
1005.00	416.62
1006.00	412.71
1007.00	387.75
1008.00	374.49
1009.00	414.27
1010.00	436.90
1011.00	444.70
1012.00	414.27
1013.00	389.31
1014.00	381.51
1015.00	397.11
1016.00	411.15
1017.00	419.74
1018.00	400.23
1019.00	400.23
1020.00	386.97
1021.00	413.49
1022.00	429.88
1023.00	452.50
1024.00	438.46
1025.00	400.23
1026.00	404.13
1027.00	394.77
1028.00	402.57
1029.00	383.07
1030.00	401.01
1031.00	409.59
1032.00	401.79
1033.00	386.19
1034.00	363.56
1035.00	362.78
1036.00	383.07
1037.00	422.86
1038.00	453.28
1039.00	443.92
1040.00	418.96
1041.00	414.27
1042.00	429.88
1043.00	443.92
1044.00	434.56
1045.00	477.47
1046.00	476.69
1047.00	461.09
1048.00	400.23
1049.00	390.09
1050.00	397.89
1051.00	392.43
1052.00	377.61
1053.00	356.54
1054.00	375.27
1055.00	376.83
1056.00	384.63
1057.00	385.41
1058.00	390.87
1059.00	409.59
1060.00	393.21
1061.00	389.31
1062.00	369.80
1063.00	381.51
1064.00	412.71
1065.00	451.72
1066.00	449.38
1067.00	440.80
1068.00	435.34
1069.00	423.64
1070.00	404.13
1071.00	391.65
1072.00	402.57
1073.00	408.81
1074.00	401.01
1075.00	376.05
1076.00	379.95
1077.00	392.43
1078.00	405.69
1079.00	421.30
1080.00	416.62
1081.00	401.79
1082.00	404.13
1083.00	390.87
1084.00	422.86
1085.00	417.40
1086.00	425.20
1087.00	406.47
1088.00	392.43
1089.00	404.91
1090.00	415.06
1091.00	404.13
1092.00	400.23
1093.00	397.11
1094.00	415.84
1095.00	406.47
1096.00	413.49
1097.00	422.08
1098.00	433.00
1099.00	427.54
1100.00	433.78
1101.00	414.27
1102.00	412.71
1103.00	408.81
1104.00	411.93
1105.00	415.84
1106.00	402.57
1107.00	421.30
1108.00	426.76
1109.00	440.80
1110.00	438.46
1111.00	420.52
1112.00	409.59
1113.00	386.97
1114.00	400.23
1115.00	388.53
1116.00	397.11
1117.00	393.99
1118.00	410.37
1119.00	413.49
1120.00	421.30
1121.00	411.15
1122.00	451.72
1123.00	452.50
1124.00	455.62
1125.00	404.13
1126.00	424.42
1127.00	427.54
1128.00	438.46
1129.00	399.45
1130.00	401.79
1131.00	393.99
1132.00	414.27
1133.00	404.13
1134.00	401.79
1135.00	397.89
1136.00	407.25
1137.00	420.52
1138.00	420.52
1139.00	398.67
1140.00	399.45
1141.00	383.07
1142.00	413.49
1143.00	437.68
1144.00	423.64
1145.00	408.03
1146.00	413.49
1147.00	446.26
1148.00	444.70
1149.00	443.14
1150.00	439.24
1151.00	469.67
1152.00	482.15
1153.00	482.93
1154.00	469.67
1155.00	408.81
1156.00	415.06
1157.00	381.51
1158.00	395.55
1159.00	369.80
1160.00	389.31
1161.00	405.69
1162.00	405.69
1163.00	419.74
1164.00	420.52
1165.00	450.16
1166.00	449.38
1167.00	418.96
1168.00	390.09
1169.00	359.66
1170.00	380.73
1171.00	382.29
1172.00	410.37
1173.00	429.88
1174.00	421.30
1175.00	415.06
1176.00	415.84
1177.00	433.00
1178.00	439.24
1179.00	441.58
1180.00	469.67
1181.00	462.65
1182.00	468.89
1183.00	452.50
1184.00	471.23
1185.00	460.31
1186.00	464.21
1187.00	425.20
1188.00	379.17
1189.00	360.44
1190.00	363.56
1191.00	404.91
1192.00	432.22
1193.00	467.33
1194.00	461.87
1195.00	447.04
1196.00	440.02
1197.00	453.28
1198.00	453.28
1199.00	432.22
1200.00	404.91
1201.00	406.47
1202.00	439.24
1203.00	447.82
1204.00	423.64
1205.00	404.13
1206.00	410.37
1207.00	450.16
1208.00	461.87
1209.00	477.47
1210.00	457.96
1211.00	427.54
1212.00	388.53
1213.00	390.87
1214.00	435.34
1215.00	444.70
1216.00	436.12
1217.00	397.11
1218.00	401.79
1219.00	386.97
1220.00	393.21
1221.00	399.45
1222.00	415.06
1223.00	423.64
1224.00	426.76
1225.00	425.98
1226.00	408.81
1227.00	398.67
1228.00	374.49
1229.00	375.27
1230.00	376.83
1231.00	411.15
1232.00	414.27
1233.00	418.96
1234.00	406.47
1235.00	407.25
1236.00	407.25
1237.00	416.62
1238.00	429.88
1239.00	430.66
1240.00	437.68
1241.00	429.88
1242.00	411.93
1243.00	395.55
1244.00	376.05
1245.00	395.55
1246.00	400.23
1247.00	408.03
1248.00	409.59
1249.00	394.77
1250.00	401.01
1251.00	385.41
1252.00	376.83
1253.00	387.75
1254.00	382.29
1255.00	393.99
1256.00	394.77
1257.00	393.99
1258.00	401.79
1259.00	397.11
1260.00	428.32
1261.00	426.76
1262.00	449.38
1263.00	425.98
1264.00	453.28
1265.00	444.70
1266.00	460.31
1267.00	448.60
1268.00	424.42
1269.00	413.49
1270.00	385.41
1271.00	409.59
1272.00	422.86
1273.00	423.64
1274.00	400.23
1275.00	390.09
1276.00	415.06
1277.00	402.57
1278.00	407.25
1279.00	415.84
1280.00	443.14
1281.00	453.28
1282.00	408.81
1283.00	395.55
1284.00	372.93
1285.00	409.59
1286.00	396.33
1287.00	396.33
1288.00	400.23
1289.00	411.15
1290.00	402.57
1291.00	377.61
1292.00	381.51
1293.00	403.35
1294.00	409.59
1295.00	387.75
1296.00	376.05
1297.00	365.90
1298.00	381.51
1299.00	380.73
1300.00	402.57
1301.00	423.64
1302.00	429.10
1303.00	396.33
1304.00	375.27
1305.00	384.63
1306.00	405.69
1307.00	414.27
1308.00	414.27
1309.00	409.59
1310.00	423.64
1311.00	427.54
1312.00	436.90
1313.00	393.99
1314.00	385.41
1315.00	402.57
1316.00	406.47
1317.00	389.31
1318.00	359.66
1319.00	381.51
1320.00	393.99
1321.00	386.19
1322.00	378.39
1323.00	367.46
1324.00	375.27
1325.00	399.45
1326.00	424.42
1327.00	429.88
1328.00	425.98
1329.00	422.86
1330.00	448.60
1331.00	472.79
1332.00	454.06
1333.00	437.68
1334.00	408.03
1335.00	415.06
1336.00	421.30
1337.00	432.22
1338.00	408.03
1339.00	379.17
1340.00	353.42
1341.00	362.78
1342.00	377.61
1343.00	385.41
1344.00	399.45
1345.00	394.77
1346.00	397.11
1347.00	395.55
1348.00	398.67
1349.00	390.87
1350.00	387.75
1351.00	371.36
1352.00	383.07
1353.00	371.36
1354.00	385.41
1355.00	386.97
1356.00	398.67
1357.00	405.69
1358.00	402.57
1359.00	405.69
1360.00	427.54
1361.00	438.46
1362.00	442.36
1363.00	447.04
1364.00	431.44
1365.00	414.27
