SpectraSuite Data File
++++++++++++++++++++++++++++++++++++
Date: Thu Nov 16 14:27:25 EST 2017
User: cheriyan
Dark Spectrum Present: No
Reference Spectrum Present: No
Number of Sampled Component Spectra: 1
Spectrometers: USB2+H05261
Integration Time (usec): 100000 (USB2+H05261)
Spectra Averaged: 1 (USB2+H05261)
Boxcar Smoothing: 1 (USB2+H05261)
Correct for Electrical Dark: No (USB2+H05261)
Strobe/Lamp Enabled: No (USB2+H05261)
Correct for Detector Non-linearity: No (USB2+H05261)
Correct for Stray Light: No (USB2+H05261)
Number of Pixels in Processed Spectrum: 2048
>>>>>Begin Processed Spectral Data<<<<<
0.00	376.83
1.00	376.83
2.00	305.05
3.00	248.10
4.00	207.53
5.00	201.29
6.00	208.31
7.00	201.29
8.00	205.97
9.00	205.97
10.00	216.89
11.00	259.80
12.00	281.64
13.00	251.22
14.00	226.25
15.00	198.17
16.00	208.31
17.00	234.83
18.00	245.76
19.00	252.78
20.00	220.01
21.00	223.91
22.00	253.56
23.00	292.57
24.00	312.85
25.00	307.39
26.00	307.39
27.00	315.97
28.00	311.29
29.00	332.36
30.00	319.87
31.00	315.97
32.00	308.95
33.00	322.99
34.00	351.08
35.00	356.54
36.00	373.71
37.00	376.83
38.00	384.63
39.00	382.29
40.00	408.03
41.00	420.52
42.00	436.12
43.00	405.69
44.00	397.11
45.00	392.43
46.00	401.79
47.00	393.99
48.00	390.09
49.00	388.53
50.00	403.35
51.00	404.13
52.00	408.03
53.00	389.31
54.00	389.31
55.00	383.07
56.00	388.53
57.00	383.07
58.00	393.99
59.00	395.55
60.00	410.37
61.00	413.49
62.00	427.54
63.00	421.30
64.00	413.49
65.00	404.13
66.00	390.09
67.00	415.84
68.00	421.30
69.00	414.27
70.00	365.12
71.00	344.06
72.00	358.88
73.00	363.56
74.00	359.66
75.00	328.46
76.00	365.12
77.00	362.78
78.00	402.57
79.00	372.93
80.00	407.25
81.00	385.41
82.00	429.88
83.00	396.33
84.00	409.59
85.00	366.68
86.00	384.63
87.00	379.17
88.00	421.30
89.00	416.62
90.00	415.84
91.00	382.29
92.00	387.75
93.00	373.71
94.00	369.02
95.00	355.76
96.00	347.96
97.00	356.54
98.00	341.72
99.00	358.88
100.00	352.64
101.00	367.46
102.00	384.63
103.00	401.01
104.00	395.55
105.00	385.41
106.00	372.93
107.00	384.63
108.00	377.61
109.00	374.49
110.00	370.58
111.00	378.39
112.00	366.68
113.00	382.29
114.00	390.09
115.00	401.79
116.00	397.11
117.00	372.15
118.00	374.49
119.00	374.49
120.00	376.83
121.00	368.24
122.00	377.61
123.00	386.97
124.00	390.87
125.00	374.49
126.00	365.12
127.00	378.39
128.00	379.95
129.00	404.13
130.00	406.47
131.00	401.01
132.00	395.55
133.00	369.80
134.00	398.67
135.00	386.19
136.00	414.27
137.00	376.05
138.00	393.99
139.00	367.46
140.00	366.68
141.00	347.18
142.00	376.05
143.00	408.03
144.00	412.71
145.00	390.87
146.00	374.49
147.00	386.19
148.00	433.78
149.00	454.06
150.00	444.70
151.00	402.57
152.00	394.77
153.00	408.03
154.00	439.24
155.00	421.30
156.00	386.97
157.00	360.44
158.00	351.86
159.00	350.30
160.00	339.38
161.00	358.88
162.00	381.51
163.00	376.83
164.00	367.46
165.00	353.42
166.00	376.05
167.00	377.61
168.00	393.99
169.00	393.99
170.00	396.33
171.00	416.62
172.00	395.55
173.00	395.55
174.00	385.41
175.00	397.11
176.00	386.19
177.00	372.93
178.00	361.22
179.00	369.80
180.00	365.90
181.00	372.15
182.00	373.71
183.00	364.34
184.00	383.07
185.00	389.31
186.00	418.18
187.00	387.75
188.00	393.21
189.00	384.63
190.00	407.25
191.00	390.87
192.00	381.51
193.00	386.97
194.00	415.06
195.00	413.49
196.00	408.81
197.00	379.95
198.00	392.43
199.00	376.83
200.00	358.10
201.00	348.74
202.00	354.20
203.00	384.63
204.00	391.65
205.00	383.85
206.00	385.41
207.00	393.99
208.00	418.18
209.00	426.76
210.00	425.98
211.00	450.16
212.00	458.75
213.00	447.82
214.00	404.91
215.00	388.53
216.00	397.11
217.00	414.27
218.00	415.06
219.00	413.49
220.00	396.33
221.00	390.09
222.00	391.65
223.00	404.91
224.00	411.93
225.00	391.65
226.00	381.51
227.00	383.07
228.00	393.99
229.00	386.97
230.00	337.04
231.00	325.33
232.00	317.53
233.00	390.87
234.00	403.35
235.00	434.56
236.00	422.08
237.00	433.78
238.00	420.52
239.00	413.49
240.00	393.99
241.00	412.71
242.00	395.55
243.00	388.53
244.00	361.22
245.00	369.02
246.00	382.29
247.00	396.33
248.00	402.57
249.00	402.57
250.00	408.81
251.00	408.81
252.00	401.01
253.00	393.21
254.00	397.89
255.00	398.67
256.00	389.31
257.00	370.58
258.00	379.17
259.00	375.27
260.00	398.67
261.00	380.73
262.00	358.88
263.00	360.44
264.00	378.39
265.00	395.55
266.00	401.79
267.00	408.81
268.00	419.74
269.00	400.23
270.00	378.39
271.00	386.97
272.00	391.65
273.00	392.43
274.00	371.36
275.00	360.44
276.00	372.15
277.00	393.99
278.00	392.43
279.00	412.71
280.00	408.81
281.00	409.59
282.00	392.43
283.00	404.13
284.00	408.03
285.00	395.55
286.00	369.02
287.00	368.24
288.00	384.63
289.00	413.49
290.00	417.40
291.00	419.74
292.00	392.43
293.00	373.71
294.00	375.27
295.00	362.00
296.00	349.52
297.00	349.52
298.00	365.90
299.00	403.35
300.00	369.80
301.00	376.83
302.00	366.68
303.00	379.95
304.00	372.15
305.00	349.52
306.00	359.66
307.00	379.17
308.00	393.21
309.00	378.39
310.00	355.76
311.00	376.05
312.00	380.73
313.00	369.02
314.00	369.80
315.00	365.12
316.00	362.00
317.00	354.20
318.00	348.74
319.00	358.10
320.00	346.40
321.00	365.90
322.00	375.27
323.00	376.83
324.00	400.23
325.00	382.29
326.00	394.77
327.00	389.31
328.00	433.00
329.00	416.62
330.00	397.11
331.00	382.29
332.00	405.69
333.00	417.40
334.00	416.62
335.00	404.13
336.00	383.85
337.00	376.83
338.00	370.58
339.00	391.65
340.00	403.35
341.00	436.12
342.00	415.06
343.00	390.87
344.00	376.83
345.00	398.67
346.00	423.64
347.00	424.42
348.00	431.44
349.00	425.20
350.00	389.31
351.00	367.46
352.00	385.41
353.00	419.74
354.00	414.27
355.00	389.31
356.00	365.90
357.00	371.36
358.00	383.85
359.00	393.99
360.00	408.03
361.00	404.13
362.00	430.66
363.00	408.81
364.00	401.01
365.00	376.05
366.00	358.88
367.00	377.61
368.00	404.13
369.00	450.94
370.00	443.92
371.00	422.86
372.00	410.37
373.00	411.15
374.00	416.62
375.00	430.66
376.00	419.74
377.00	417.40
378.00	364.34
379.00	361.22
380.00	369.02
381.00	411.93
382.00	412.71
383.00	386.97
384.00	375.27
385.00	389.31
386.00	410.37
387.00	421.30
388.00	425.20
389.00	398.67
390.00	390.09
391.00	390.87
392.00	400.23
393.00	394.77
394.00	379.17
395.00	388.53
396.00	403.35
397.00	435.34
398.00	417.40
399.00	424.42
400.00	385.41
401.00	394.77
402.00	382.29
403.00	393.21
404.00	396.33
405.00	393.99
406.00	376.05
407.00	359.66
408.00	354.98
409.00	383.07
410.00	407.25
411.00	400.23
412.00	406.47
413.00	408.81
414.00	404.91
415.00	398.67
416.00	404.13
417.00	410.37
418.00	386.19
419.00	362.78
420.00	388.53
421.00	390.87
422.00	396.33
423.00	353.42
424.00	365.90
425.00	374.49
426.00	415.06
427.00	415.84
428.00	404.13
429.00	409.59
430.00	402.57
431.00	413.49
432.00	397.11
433.00	403.35
434.00	412.71
435.00	393.21
436.00	392.43
437.00	379.95
438.00	389.31
439.00	386.97
440.00	386.19
441.00	413.49
442.00	423.64
443.00	416.62
444.00	411.15
445.00	443.92
446.00	450.16
447.00	420.52
448.00	385.41
449.00	397.89
450.00	401.01
451.00	399.45
452.00	386.97
453.00	408.03
454.00	409.59
455.00	403.35
456.00	401.79
457.00	376.83
458.00	410.37
459.00	425.98
460.00	447.04
461.00	440.02
462.00	418.18
463.00	410.37
464.00	378.39
465.00	369.02
466.00	385.41
467.00	394.77
468.00	399.45
469.00	390.09
470.00	392.43
471.00	393.99
472.00	411.15
473.00	400.23
474.00	413.49
475.00	428.32
476.00	435.34
477.00	447.82
478.00	420.52
479.00	447.82
480.00	436.90
481.00	436.12
482.00	408.81
483.00	415.06
484.00	402.57
485.00	413.49
486.00	366.68
487.00	365.12
488.00	364.34
489.00	389.31
490.00	390.09
491.00	359.66
492.00	346.40
493.00	370.58
494.00	383.85
495.00	421.30
496.00	404.13
497.00	436.12
498.00	415.06
499.00	407.25
500.00	401.01
501.00	414.27
502.00	411.93
503.00	374.49
504.00	357.32
505.00	358.10
506.00	386.97
507.00	389.31
508.00	402.57
509.00	413.49
510.00	423.64
511.00	427.54
512.00	416.62
513.00	426.76
514.00	422.08
515.00	418.18
516.00	397.89
517.00	403.35
518.00	401.01
519.00	392.43
520.00	397.11
521.00	412.71
522.00	395.55
523.00	376.05
524.00	366.68
525.00	389.31
526.00	405.69
527.00	403.35
528.00	401.79
529.00	401.79
530.00	396.33
531.00	383.07
532.00	369.80
533.00	381.51
534.00	408.03
535.00	411.93
536.00	416.62
537.00	432.22
538.00	440.80
539.00	448.60
540.00	421.30
541.00	422.86
542.00	403.35
543.00	410.37
544.00	395.55
545.00	371.36
546.00	357.32
547.00	358.10
548.00	368.24
549.00	367.46
550.00	365.12
551.00	341.72
552.00	351.08
553.00	372.15
554.00	403.35
555.00	434.56
556.00	435.34
557.00	425.20
558.00	402.57
559.00	377.61
560.00	394.77
561.00	411.15
562.00	420.52
563.00	433.00
564.00	420.52
565.00	432.22
566.00	415.84
567.00	404.13
568.00	383.85
569.00	408.81
570.00	397.11
571.00	408.81
572.00	386.97
573.00	444.70
574.00	473.57
575.00	462.65
576.00	411.93
577.00	358.10
578.00	361.22
579.00	365.90
580.00	395.55
581.00	390.87
582.00	358.88
583.00	361.22
584.00	358.88
585.00	406.47
586.00	412.71
587.00	413.49
588.00	397.11
589.00	364.34
590.00	374.49
591.00	355.76
592.00	354.98
593.00	347.96
594.00	381.51
595.00	393.99
596.00	401.79
597.00	392.43
598.00	375.27
599.00	351.86
600.00	369.80
601.00	402.57
602.00	416.62
603.00	400.23
604.00	379.17
605.00	392.43
606.00	399.45
607.00	414.27
608.00	402.57
609.00	397.11
610.00	393.21
611.00	384.63
612.00	369.02
613.00	358.10
614.00	392.43
615.00	398.67
616.00	400.23
617.00	379.17
618.00	375.27
619.00	373.71
620.00	386.19
621.00	381.51
622.00	380.73
623.00	354.98
624.00	354.20
625.00	382.29
626.00	383.85
627.00	378.39
628.00	364.34
629.00	392.43
630.00	398.67
631.00	388.53
632.00	362.78
633.00	376.05
634.00	412.71
635.00	488.39
636.00	567.19
637.00	628.82
638.00	617.90
639.00	623.36
640.00	582.79
641.00	519.60
642.00	443.92
643.00	379.17
644.00	358.10
645.00	343.28
646.00	346.40
647.00	375.27
648.00	379.95
649.00	362.78
650.00	376.05
651.00	385.41
652.00	428.32
653.00	421.30
654.00	446.26
655.00	450.16
656.00	445.48
657.00	386.19
658.00	375.27
659.00	386.97
660.00	418.96
661.00	417.40
662.00	404.13
663.00	386.97
664.00	379.17
665.00	381.51
666.00	364.34
667.00	368.24
668.00	380.73
669.00	411.15
670.00	402.57
671.00	395.55
672.00	397.11
673.00	411.93
674.00	405.69
675.00	418.18
676.00	418.96
677.00	434.56
678.00	433.78
679.00	455.62
680.00	464.21
681.00	454.84
682.00	429.88
683.00	423.64
684.00	417.40
685.00	431.44
686.00	404.91
687.00	399.45
688.00	379.17
689.00	402.57
690.00	420.52
691.00	425.20
692.00	412.71
693.00	406.47
694.00	383.07
695.00	377.61
696.00	362.00
697.00	383.07
698.00	386.97
699.00	404.91
700.00	433.00
701.00	429.88
702.00	418.18
703.00	363.56
704.00	369.80
705.00	368.24
706.00	387.75
707.00	372.93
708.00	380.73
709.00	379.17
710.00	404.91
711.00	397.89
712.00	401.79
713.00	385.41
714.00	383.07
715.00	383.07
716.00	363.56
717.00	382.29
718.00	438.46
719.00	461.87
720.00	454.84
721.00	386.19
722.00	401.01
723.00	432.22
724.00	474.35
725.00	470.45
726.00	425.98
727.00	404.91
728.00	384.63
729.00	383.85
730.00	385.41
731.00	387.75
732.00	409.59
733.00	403.35
734.00	389.31
735.00	368.24
736.00	335.48
737.00	364.34
738.00	387.75
739.00	422.86
740.00	425.98
741.00	409.59
742.00	417.40
743.00	433.78
744.00	454.84
745.00	444.70
746.00	443.14
747.00	408.03
748.00	422.86
749.00	406.47
750.00	432.22
751.00	403.35
752.00	390.87
753.00	390.09
754.00	426.76
755.00	447.04
756.00	464.21
757.00	452.50
758.00	415.84
759.00	383.07
760.00	381.51
761.00	418.18
762.00	440.80
763.00	432.22
764.00	424.42
765.00	425.20
766.00	421.30
767.00	427.54
768.00	417.40
769.00	399.45
770.00	395.55
771.00	371.36
772.00	383.85
773.00	377.61
774.00	403.35
775.00	429.88
776.00	428.32
777.00	404.13
778.00	396.33
779.00	414.27
780.00	440.80
781.00	440.02
782.00	418.18
783.00	465.77
784.00	457.18
785.00	451.72
786.00	399.45
787.00	403.35
788.00	411.15
789.00	411.93
790.00	417.40
791.00	424.42
792.00	397.11
793.00	390.87
794.00	377.61
795.00	379.17
796.00	353.42
797.00	351.08
798.00	372.15
799.00	390.87
800.00	384.63
801.00	399.45
802.00	406.47
803.00	436.12
804.00	413.49
805.00	415.84
806.00	388.53
807.00	391.65
808.00	389.31
809.00	409.59
810.00	431.44
811.00	458.74
812.00	450.94
813.00	425.98
814.00	404.91
815.00	404.13
816.00	405.69
817.00	388.53
818.00	379.95
819.00	385.41
820.00	358.88
821.00	368.24
822.00	393.99
823.00	422.08
824.00	420.52
825.00	385.41
826.00	411.15
827.00	411.15
828.00	416.62
829.00	389.31
830.00	406.47
831.00	422.08
832.00	428.32
833.00	410.37
834.00	401.79
835.00	404.91
836.00	414.27
837.00	420.52
838.00	409.59
839.00	406.47
840.00	427.54
841.00	450.16
842.00	439.24
843.00	402.57
844.00	408.03
845.00	401.01
846.00	405.69
847.00	383.85
848.00	378.39
849.00	392.43
850.00	383.85
851.00	410.37
852.00	402.57
853.00	411.93
854.00	404.91
855.00	390.09
856.00	377.61
857.00	354.20
858.00	367.46
859.00	372.93
860.00	391.65
861.00	393.21
862.00	403.35
863.00	394.77
864.00	368.24
865.00	364.34
866.00	390.87
867.00	422.08
868.00	444.70
869.00	418.18
870.00	423.64
871.00	379.95
872.00	377.61
873.00	359.66
874.00	380.73
875.00	369.80
876.00	359.66
877.00	327.68
878.00	357.32
879.00	365.90
880.00	382.29
881.00	393.21
882.00	405.69
883.00	436.12
884.00	431.44
885.00	403.35
886.00	393.21
887.00	380.73
888.00	393.99
889.00	393.99
890.00	386.97
891.00	383.07
892.00	378.39
893.00	365.12
894.00	369.02
895.00	372.15
896.00	388.53
897.00	400.23
898.00	402.57
899.00	405.69
900.00	410.37
901.00	417.40
902.00	411.93
903.00	390.87
904.00	358.88
905.00	368.24
906.00	390.09
907.00	428.32
908.00	415.84
909.00	731.03
910.00	725.57
911.00	741.17
912.00	411.15
913.00	401.01
914.00	381.51
915.00	364.34
916.00	380.73
917.00	408.81
918.00	450.16
919.00	426.76
920.00	384.63
921.00	356.54
922.00	362.00
923.00	384.63
924.00	413.49
925.00	418.96
926.00	434.56
927.00	427.54
928.00	404.13
929.00	389.31
930.00	383.07
931.00	396.33
932.00	402.57
933.00	392.43
934.00	392.43
935.00	401.79
936.00	410.37
937.00	408.81
938.00	424.42
939.00	415.06
940.00	439.24
941.00	422.86
942.00	414.27
943.00	424.42
944.00	414.27
945.00	429.88
946.00	404.13
947.00	436.12
948.00	440.80
949.00	457.18
950.00	432.22
951.00	409.59
952.00	393.99
953.00	376.05
954.00	408.03
955.00	381.51
956.00	414.27
957.00	410.37
958.00	434.56
959.00	425.20
960.00	415.06
961.00	427.54
962.00	396.33
963.00	397.89
964.00	395.55
965.00	421.30
966.00	436.90
967.00	409.59
968.00	408.03
969.00	378.39
970.00	389.31
971.00	385.41
972.00	398.67
973.00	392.43
974.00	392.43
975.00	388.53
976.00	388.53
977.00	383.85
978.00	372.15
979.00	386.97
980.00	376.83
981.00	374.49
982.00	365.90
983.00	405.69
984.00	420.52
985.00	421.30
986.00	386.19
987.00	398.67
988.00	388.53
989.00	413.49
990.00	401.01
991.00	394.77
992.00	368.24
993.00	370.58
994.00	393.99
995.00	379.95
996.00	375.27
997.00	366.68
998.00	370.58
999.00	363.56
1000.00	358.88
1001.00	384.63
1002.00	401.79
1003.00	423.64
1004.00	407.25
1005.00	408.03
1006.00	396.33
1007.00	423.64
1008.00	412.71
1009.00	428.32
1010.00	405.69
1011.00	416.62
1012.00	408.81
1013.00	429.10
1014.00	437.68
1015.00	426.76
1016.00	403.35
1017.00	380.73
1018.00	381.51
1019.00	385.41
1020.00	375.27
1021.00	349.52
1022.00	338.60
1023.00	346.40
1024.00	369.02
1025.00	378.39
1026.00	383.85
1027.00	390.87
1028.00	390.87
1029.00	393.99
1030.00	398.67
1031.00	411.93
1032.00	413.49
1033.00	414.27
1034.00	380.73
1035.00	386.97
1036.00	372.93
1037.00	399.45
1038.00	399.45
1039.00	417.40
1040.00	429.10
1041.00	410.37
1042.00	406.47
1043.00	386.97
1044.00	397.89
1045.00	414.27
1046.00	410.37
1047.00	404.91
1048.00	373.71
1049.00	376.05
1050.00	358.88
1051.00	369.02
1052.00	348.74
1053.00	359.66
1054.00	354.98
1055.00	378.39
1056.00	401.79
1057.00	401.01
1058.00	402.57
1059.00	382.29
1060.00	376.05
1061.00	369.02
1062.00	359.66
1063.00	372.15
1064.00	394.77
1065.00	399.45
1066.00	414.27
1067.00	402.57
1068.00	418.18
1069.00	408.03
1070.00	393.99
1071.00	358.88
1072.00	332.36
1073.00	340.94
1074.00	373.71
1075.00	388.53
1076.00	404.91
1077.00	393.99
1078.00	390.09
1079.00	382.29
1080.00	380.73
1081.00	402.57
1082.00	406.47
1083.00	425.98
1084.00	433.78
1085.00	433.00
1086.00	431.44
1087.00	423.64
1088.00	412.71
1089.00	418.18
1090.00	415.84
1091.00	428.32
1092.00	425.20
1093.00	419.74
1094.00	433.78
1095.00	433.00
1096.00	419.74
1097.00	391.65
1098.00	407.25
1099.00	415.84
1100.00	415.06
1101.00	372.93
1102.00	383.85
1103.00	378.39
1104.00	375.27
1105.00	383.85
1106.00	408.03
1107.00	425.20
1108.00	399.45
1109.00	380.73
1110.00	404.13
1111.00	411.15
1112.00	428.32
1113.00	377.61
1114.00	389.31
1115.00	402.57
1116.00	443.92
1117.00	443.92
1118.00	430.66
1119.00	450.94
1120.00	449.38
1121.00	446.26
1122.00	472.79
1123.00	462.65
1124.00	464.21
1125.00	381.51
1126.00	380.73
1127.00	374.49
1128.00	407.25
1129.00	408.81
1130.00	424.42
1131.00	433.00
1132.00	422.08
1133.00	384.63
1134.00	372.93
1135.00	383.85
1136.00	402.57
1137.00	418.96
1138.00	413.49
1139.00	425.98
1140.00	386.97
1141.00	380.73
1142.00	376.05
1143.00	418.18
1144.00	441.58
1145.00	440.80
1146.00	436.90
1147.00	433.00
1148.00	450.16
1149.00	441.58
1150.00	459.53
1151.00	453.28
1152.00	472.01
1153.00	461.09
1154.00	454.06
1155.00	433.00
1156.00	436.12
1157.00	428.32
1158.00	394.77
1159.00	379.17
1160.00	380.73
1161.00	411.15
1162.00	402.57
1163.00	379.95
1164.00	393.99
1165.00	410.37
1166.00	436.90
1167.00	426.76
1168.00	415.06
1169.00	411.93
1170.00	409.59
1171.00	404.91
1172.00	397.89
1173.00	406.47
1174.00	414.27
1175.00	429.88
1176.00	412.71
1177.00	406.47
1178.00	391.65
1179.00	421.30
1180.00	411.93
1181.00	429.88
1182.00	413.49
1183.00	452.50
1184.00	451.72
1185.00	449.38
1186.00	427.54
1187.00	427.54
1188.00	419.74
1189.00	415.84
1190.00	391.65
1191.00	397.89
1192.00	398.67
1193.00	428.32
1194.00	440.02
1195.00	433.00
1196.00	428.32
1197.00	420.52
1198.00	431.44
1199.00	458.75
1200.00	454.06
1201.00	448.60
1202.00	449.38
1203.00	433.00
1204.00	459.53
1205.00	419.74
1206.00	429.10
1207.00	390.09
1208.00	416.62
1209.00	425.98
1210.00	445.48
1211.00	439.24
1212.00	451.72
1213.00	450.16
1214.00	447.04
1215.00	446.26
1216.00	437.68
1217.00	428.32
1218.00	444.70
1219.00	457.18
1220.00	452.50
1221.00	417.40
1222.00	371.36
1223.00	362.78
1224.00	341.72
1225.00	383.07
1226.00	401.79
1227.00	425.20
1228.00	416.62
1229.00	404.13
1230.00	415.06
1231.00	433.00
1232.00	439.24
1233.00	438.46
1234.00	440.80
1235.00	436.12
1236.00	443.14
1237.00	422.08
1238.00	410.37
1239.00	403.35
1240.00	404.13
1241.00	411.15
1242.00	387.75
1243.00	399.45
1244.00	387.75
1245.00	395.55
1246.00	390.87
1247.00	411.93
1248.00	425.98
1249.00	433.78
1250.00	430.66
1251.00	421.30
1252.00	421.30
1253.00	425.98
1254.00	418.18
1255.00	410.37
1256.00	400.23
1257.00	402.57
1258.00	429.10
1259.00	451.72
1260.00	445.48
1261.00	416.62
1262.00	379.95
1263.00	388.53
1264.00	389.31
1265.00	378.39
1266.00	399.45
1267.00	421.30
1268.00	447.04
1269.00	413.49
1270.00	404.13
1271.00	422.08
1272.00	425.98
1273.00	403.35
1274.00	376.05
1275.00	398.67
1276.00	433.78
1277.00	443.92
1278.00	435.34
1279.00	404.13
1280.00	407.25
1281.00	397.11
1282.00	419.74
1283.00	404.91
1284.00	424.42
1285.00	415.06
1286.00	436.12
1287.00	402.57
1288.00	395.55
1289.00	397.11
1290.00	422.86
1291.00	440.02
1292.00	440.02
1293.00	429.88
1294.00	382.29
1295.00	358.10
1296.00	354.98
1297.00	368.24
1298.00	385.41
1299.00	426.76
1300.00	464.21
1301.00	441.58
1302.00	395.55
1303.00	379.17
1304.00	388.53
1305.00	377.61
1306.00	381.51
1307.00	387.75
1308.00	412.71
1309.00	372.15
1310.00	361.22
1311.00	346.40
1312.00	369.80
1313.00	378.39
1314.00	379.95
1315.00	392.43
1316.00	412.71
1317.00	431.44
1318.00	422.08
1319.00	401.79
1320.00	397.89
1321.00	393.99
1322.00	401.79
1323.00	379.95
1324.00	393.99
1325.00	405.69
1326.00	450.16
1327.00	443.92
1328.00	439.24
1329.00	441.58
1330.00	453.28
1331.00	482.93
1332.00	477.47
1333.00	467.33
1334.00	441.58
1335.00	440.80
1336.00	442.36
1337.00	441.58
1338.00	438.46
1339.00	428.32
1340.00	425.98
1341.00	390.09
1342.00	399.45
1343.00	381.51
1344.00	383.85
1345.00	368.24
1346.00	369.02
1347.00	373.71
1348.00	379.17
1349.00	365.12
1350.00	363.56
1351.00	378.39
1352.00	389.31
1353.00	396.33
1354.00	397.89
1355.00	415.06
1356.00	425.98
1357.00	415.84
1358.00	391.65
1359.00	404.91
1360.00	397.11
1361.00	399.45
1362.00	388.53
1363.00	415.84
1364.00	426.76
1365.00	404.13
