SpectraSuite Data File
++++++++++++++++++++++++++++++++++++
Date: Thu Nov 16 14:27:23 EST 2017
User: cheriyan
Dark Spectrum Present: No
Reference Spectrum Present: No
Number of Sampled Component Spectra: 1
Spectrometers: USB2+H05261
Integration Time (usec): 100000 (USB2+H05261)
Spectra Averaged: 1 (USB2+H05261)
Boxcar Smoothing: 1 (USB2+H05261)
Correct for Electrical Dark: No (USB2+H05261)
Strobe/Lamp Enabled: No (USB2+H05261)
Correct for Detector Non-linearity: No (USB2+H05261)
Correct for Stray Light: No (USB2+H05261)
Number of Pixels in Processed Spectrum: 2048
>>>>>Begin Processed Spectral Data<<<<<
0.00	353.42
1.00	353.42
2.00	321.43
3.00	287.89
4.00	250.44
5.00	224.69
6.00	227.81
7.00	230.15
8.00	220.01
9.00	209.09
10.00	189.58
11.00	195.04
12.00	195.82
13.00	191.92
14.00	223.91
15.00	235.61
16.00	239.51
17.00	238.73
18.00	218.45
19.00	227.03
20.00	237.95
21.00	242.64
22.00	291.79
23.00	291.79
24.00	312.07
25.00	285.55
26.00	317.53
27.00	359.66
28.00	386.19
29.00	358.88
30.00	351.08
31.00	343.28
32.00	360.44
33.00	337.82
34.00	342.50
35.00	347.96
36.00	372.93
37.00	388.53
38.00	397.89
39.00	393.99
40.00	373.71
41.00	382.29
42.00	382.29
43.00	375.27
44.00	351.86
45.00	344.06
46.00	368.24
47.00	402.57
48.00	448.60
49.00	439.24
50.00	396.33
51.00	372.15
52.00	398.67
53.00	420.52
54.00	418.18
55.00	410.37
56.00	415.06
57.00	407.25
58.00	383.85
59.00	386.19
60.00	382.29
61.00	388.53
62.00	369.02
63.00	372.15
64.00	382.29
65.00	385.41
66.00	397.89
67.00	379.95
68.00	378.39
69.00	347.96
70.00	387.75
71.00	415.06
72.00	420.52
73.00	378.39
74.00	361.22
75.00	377.61
76.00	397.89
77.00	395.55
78.00	383.85
79.00	381.51
80.00	371.36
81.00	396.33
82.00	375.27
83.00	385.41
84.00	347.18
85.00	349.52
86.00	343.28
87.00	348.74
88.00	377.61
89.00	393.21
90.00	395.55
91.00	399.45
92.00	388.53
93.00	400.23
94.00	396.33
95.00	385.41
96.00	398.67
97.00	376.05
98.00	401.01
99.00	391.65
100.00	402.57
101.00	383.85
102.00	382.29
103.00	404.13
104.00	419.74
105.00	412.71
106.00	374.49
107.00	367.46
108.00	369.02
109.00	379.95
110.00	369.02
111.00	374.49
112.00	372.15
113.00	393.21
114.00	373.71
115.00	369.80
116.00	361.22
117.00	392.43
118.00	426.76
119.00	448.60
120.00	431.44
121.00	401.01
122.00	376.83
123.00	392.43
124.00	401.79
125.00	401.01
126.00	378.39
127.00	377.61
128.00	376.05
129.00	400.23
130.00	378.39
131.00	401.79
132.00	367.46
133.00	380.73
134.00	365.90
135.00	390.09
136.00	409.59
137.00	390.87
138.00	402.57
139.00	386.97
140.00	386.97
141.00	369.02
142.00	372.15
143.00	384.63
144.00	365.90
145.00	379.95
146.00	358.88
147.00	376.05
148.00	362.00
149.00	376.83
150.00	377.61
151.00	387.75
152.00	391.65
153.00	391.65
154.00	369.02
155.00	376.83
156.00	383.07
157.00	381.51
158.00	375.27
159.00	393.21
160.00	420.52
161.00	424.42
162.00	411.15
163.00	392.43
164.00	401.01
165.00	386.19
166.00	393.99
167.00	368.24
168.00	363.56
169.00	357.32
170.00	374.49
171.00	367.46
172.00	351.08
173.00	344.06
174.00	359.66
175.00	382.29
176.00	390.09
177.00	403.35
178.00	399.45
179.00	377.61
180.00	368.24
181.00	381.51
182.00	408.81
183.00	421.30
184.00	418.18
185.00	422.08
186.00	405.69
187.00	398.67
188.00	387.75
189.00	372.15
190.00	368.24
191.00	348.74
192.00	380.73
193.00	386.97
194.00	386.97
195.00	393.21
196.00	394.77
197.00	380.73
198.00	379.17
199.00	371.36
200.00	399.45
201.00	405.69
202.00	407.25
203.00	410.37
204.00	395.55
205.00	413.49
206.00	408.03
207.00	408.03
208.00	399.45
209.00	418.96
210.00	414.27
211.00	421.30
212.00	404.13
213.00	411.93
214.00	401.79
215.00	433.00
216.00	427.54
217.00	424.42
218.00	408.81
219.00	421.30
220.00	420.52
221.00	425.20
222.00	409.59
223.00	424.42
224.00	385.41
225.00	377.61
226.00	366.68
227.00	395.55
228.00	410.37
229.00	411.93
230.00	411.93
231.00	399.45
232.00	411.15
233.00	404.13
234.00	436.12
235.00	411.15
236.00	404.91
237.00	369.80
238.00	376.05
239.00	374.49
240.00	388.53
241.00	401.79
242.00	404.91
243.00	385.41
244.00	358.10
245.00	346.40
246.00	361.22
247.00	384.63
248.00	401.01
249.00	392.43
250.00	361.22
251.00	365.12
252.00	381.51
253.00	410.37
254.00	428.32
255.00	433.78
256.00	425.20
257.00	413.49
258.00	401.79
259.00	401.79
260.00	393.21
261.00	388.53
262.00	396.33
263.00	408.81
264.00	425.98
265.00	431.44
266.00	453.28
267.00	450.94
268.00	440.02
269.00	404.13
270.00	387.75
271.00	389.31
272.00	397.11
273.00	386.19
274.00	379.95
275.00	375.27
276.00	397.11
277.00	394.77
278.00	407.25
279.00	417.40
280.00	434.56
281.00	402.57
282.00	393.21
283.00	404.91
284.00	411.93
285.00	395.55
286.00	365.90
287.00	385.41
288.00	402.57
289.00	424.42
290.00	423.64
291.00	410.37
292.00	408.03
293.00	416.62
294.00	408.03
295.00	396.33
296.00	383.85
297.00	394.77
298.00	405.69
299.00	395.55
300.00	411.93
301.00	383.07
302.00	386.97
303.00	344.06
304.00	361.22
305.00	345.62
306.00	360.44
307.00	368.24
308.00	378.39
309.00	397.11
310.00	393.99
311.00	390.09
312.00	372.93
313.00	370.58
314.00	380.73
315.00	390.09
316.00	418.96
317.00	417.40
318.00	415.84
319.00	370.58
320.00	361.22
321.00	350.30
322.00	383.07
323.00	386.97
324.00	438.46
325.00	410.37
326.00	418.96
327.00	374.49
328.00	389.31
329.00	376.05
330.00	397.11
331.00	370.58
332.00	358.10
333.00	340.16
334.00	373.71
335.00	390.09
336.00	396.33
337.00	380.73
338.00	397.89
339.00	374.49
340.00	370.58
341.00	364.34
342.00	383.07
343.00	399.45
344.00	391.65
345.00	391.65
346.00	403.35
347.00	393.21
348.00	394.77
349.00	378.39
350.00	394.77
351.00	408.03
352.00	411.93
353.00	405.69
354.00	375.27
355.00	384.63
356.00	388.53
357.00	418.18
358.00	426.76
359.00	418.96
360.00	411.15
361.00	387.75
362.00	394.77
363.00	390.87
364.00	394.77
365.00	392.43
366.00	385.41
367.00	371.36
368.00	414.27
369.00	422.08
370.00	444.70
371.00	383.85
372.00	386.97
373.00	386.97
374.00	415.84
375.00	410.37
376.00	414.27
377.00	380.73
378.00	372.93
379.00	360.44
380.00	369.80
381.00	404.91
382.00	393.21
383.00	412.71
384.00	378.39
385.00	373.71
386.00	372.93
387.00	374.49
388.00	404.91
389.00	388.53
390.00	404.91
391.00	387.75
392.00	403.35
393.00	415.06
394.00	433.00
395.00	441.58
396.00	416.62
397.00	407.25
398.00	386.19
399.00	378.39
400.00	357.32
401.00	369.02
402.00	361.22
403.00	374.49
404.00	393.21
405.00	407.25
406.00	386.97
407.00	374.49
408.00	378.39
409.00	404.91
410.00	404.13
411.00	411.15
412.00	440.02
413.00	434.56
414.00	398.67
415.00	357.32
416.00	354.98
417.00	384.63
418.00	401.79
419.00	393.99
420.00	412.71
421.00	404.13
422.00	395.55
423.00	379.17
424.00	379.17
425.00	412.71
426.00	425.20
427.00	401.01
428.00	393.99
429.00	389.31
430.00	420.52
431.00	427.54
432.00	414.27
433.00	401.01
434.00	392.43
435.00	380.73
436.00	386.19
437.00	395.55
438.00	412.71
439.00	399.45
440.00	396.33
441.00	433.78
442.00	457.96
443.00	442.36
444.00	443.14
445.00	404.13
446.00	443.92
447.00	414.27
448.00	418.18
449.00	368.24
450.00	356.54
451.00	385.41
452.00	399.45
453.00	408.81
454.00	401.79
455.00	417.40
456.00	418.96
457.00	418.96
458.00	393.21
459.00	351.08
460.00	349.52
461.00	345.62
462.00	370.58
463.00	343.28
464.00	340.94
465.00	367.46
466.00	420.52
467.00	450.16
468.00	457.96
469.00	438.46
470.00	418.18
471.00	397.89
472.00	411.15
473.00	415.06
474.00	415.06
475.00	375.27
476.00	363.56
477.00	357.32
478.00	395.55
479.00	417.40
480.00	424.42
481.00	429.88
482.00	448.60
483.00	446.26
484.00	445.48
485.00	442.36
486.00	433.78
487.00	408.81
488.00	388.53
489.00	419.74
490.00	417.40
491.00	426.76
492.00	422.08
493.00	430.66
494.00	433.78
495.00	418.96
496.00	417.40
497.00	389.31
498.00	369.02
499.00	362.78
500.00	390.09
501.00	408.03
502.00	418.96
503.00	390.87
504.00	376.05
505.00	372.15
506.00	404.91
507.00	426.76
508.00	440.80
509.00	435.34
510.00	433.78
511.00	424.42
512.00	441.58
513.00	431.44
514.00	431.44
515.00	397.89
516.00	392.43
517.00	402.57
518.00	424.42
519.00	433.78
520.00	421.30
521.00	418.18
522.00	405.69
523.00	395.55
524.00	383.85
525.00	424.42
526.00	436.12
527.00	433.78
528.00	407.25
529.00	391.65
530.00	370.58
531.00	365.12
532.00	354.20
533.00	368.24
534.00	378.39
535.00	415.06
536.00	423.64
537.00	441.58
538.00	441.58
539.00	464.99
540.00	451.72
541.00	425.20
542.00	418.18
543.00	428.32
544.00	452.50
545.00	415.84
546.00	386.97
547.00	386.97
548.00	407.25
549.00	407.25
550.00	382.29
551.00	377.61
552.00	370.58
553.00	386.19
554.00	387.75
555.00	429.88
556.00	431.44
557.00	447.04
558.00	452.50
559.00	443.92
560.00	450.94
561.00	404.91
562.00	415.06
563.00	393.21
564.00	405.69
565.00	397.89
566.00	418.18
567.00	425.20
568.00	441.58
569.00	437.68
570.00	438.46
571.00	465.77
572.00	483.71
573.00	515.70
574.00	486.05
575.00	460.31
576.00	429.88
577.00	406.47
578.00	391.65
579.00	390.09
580.00	416.62
581.00	428.32
582.00	418.18
583.00	401.79
584.00	416.62
585.00	420.52
586.00	427.54
587.00	401.79
588.00	370.58
589.00	382.29
590.00	397.89
591.00	413.49
592.00	401.01
593.00	404.13
594.00	427.54
595.00	434.56
596.00	430.66
597.00	409.59
598.00	416.62
599.00	403.35
600.00	441.58
601.00	418.18
602.00	425.20
603.00	394.77
604.00	401.79
605.00	390.09
606.00	416.62
607.00	411.15
608.00	421.30
609.00	365.90
610.00	372.15
611.00	380.73
612.00	387.75
613.00	396.33
614.00	386.19
615.00	404.13
616.00	386.19
617.00	377.61
618.00	380.73
619.00	395.55
620.00	387.75
621.00	383.85
622.00	393.21
623.00	418.96
624.00	417.40
625.00	420.52
626.00	426.76
627.00	450.94
628.00	457.18
629.00	461.87
630.00	450.16
631.00	422.86
632.00	413.49
633.00	449.38
634.00	493.07
635.00	558.61
636.00	628.82
637.00	698.26
638.00	729.47
639.00	700.60
640.00	615.56
641.00	510.24
642.00	460.31
643.00	415.84
644.00	434.56
645.00	404.91
646.00	445.48
647.00	451.72
648.00	450.94
649.00	425.98
650.00	408.03
651.00	408.03
652.00	404.13
653.00	388.53
654.00	443.92
655.00	450.94
656.00	464.99
657.00	399.45
658.00	391.65
659.00	375.27
660.00	390.09
661.00	411.93
662.00	437.68
663.00	430.66
664.00	429.88
665.00	428.32
666.00	420.52
667.00	404.91
668.00	389.31
669.00	399.45
670.00	384.63
671.00	395.55
672.00	379.95
673.00	401.79
674.00	408.81
675.00	446.26
676.00	467.33
677.00	472.79
678.00	465.77
679.00	452.50
680.00	442.36
681.00	450.94
682.00	448.60
683.00	430.66
684.00	417.40
685.00	424.42
686.00	451.72
687.00	464.99
688.00	431.44
689.00	407.25
690.00	381.51
691.00	433.78
692.00	466.55
693.00	464.21
694.00	424.42
695.00	401.01
696.00	402.57
697.00	448.60
698.00	445.48
699.00	442.36
700.00	404.13
701.00	389.31
702.00	393.21
703.00	392.43
704.00	413.49
705.00	397.89
706.00	383.07
707.00	383.07
708.00	392.43
709.00	410.37
710.00	399.45
711.00	400.23
712.00	416.62
713.00	446.26
714.00	465.77
715.00	462.65
716.00	455.62
717.00	450.94
718.00	460.31
719.00	452.50
720.00	479.03
721.00	468.11
722.00	450.94
723.00	429.88
724.00	443.14
725.00	483.71
726.00	472.01
727.00	428.32
728.00	382.29
729.00	372.15
730.00	390.87
731.00	423.64
732.00	450.94
733.00	444.70
734.00	429.10
735.00	398.67
736.00	394.77
737.00	419.74
738.00	433.78
739.00	418.96
740.00	371.36
741.00	362.78
742.00	380.73
743.00	420.52
744.00	450.16
745.00	465.77
746.00	448.60
747.00	437.68
748.00	435.34
749.00	423.64
750.00	436.12
751.00	417.40
752.00	429.10
753.00	402.57
754.00	440.02
755.00	440.80
756.00	446.26
757.00	410.37
758.00	383.85
759.00	401.01
760.00	410.37
761.00	438.46
762.00	433.00
763.00	437.68
764.00	433.78
765.00	420.52
766.00	422.08
767.00	412.71
768.00	415.84
769.00	390.87
770.00	415.84
771.00	410.37
772.00	418.96
773.00	411.93
774.00	407.25
775.00	423.64
776.00	415.84
777.00	425.20
778.00	414.27
779.00	429.10
780.00	432.22
781.00	447.82
782.00	425.98
783.00	486.83
784.00	462.65
785.00	456.40
786.00	390.87
787.00	379.95
788.00	371.36
789.00	377.61
790.00	418.96
791.00	422.08
792.00	419.74
793.00	386.19
794.00	378.39
795.00	377.61
796.00	362.00
797.00	391.65
798.00	383.07
799.00	405.69
800.00	397.11
801.00	418.18
802.00	431.44
803.00	420.52
804.00	418.18
805.00	411.93
806.00	420.52
807.00	404.91
808.00	408.81
809.00	428.32
810.00	432.22
811.00	433.78
812.00	414.27
813.00	417.40
814.00	417.40
815.00	421.30
816.00	411.93
817.00	392.43
818.00	385.41
819.00	362.78
820.00	372.93
821.00	376.83
822.00	440.80
823.00	434.56
824.00	403.35
825.00	379.95
826.00	383.85
827.00	422.08
828.00	393.99
829.00	373.71
830.00	393.21
831.00	389.31
832.00	421.30
833.00	406.47
834.00	390.09
835.00	360.44
836.00	343.28
837.00	361.22
838.00	393.21
839.00	410.37
840.00	404.13
841.00	358.88
842.00	356.54
843.00	379.95
844.00	426.76
845.00	397.11
846.00	391.65
847.00	380.73
848.00	423.64
849.00	440.80
850.00	434.56
851.00	415.06
852.00	408.81
853.00	416.62
854.00	413.49
855.00	430.66
856.00	416.62
857.00	408.81
858.00	386.97
859.00	374.49
860.00	393.99
861.00	411.15
862.00	440.02
863.00	454.84
864.00	433.00
865.00	425.98
866.00	407.25
867.00	400.23
868.00	401.01
869.00	404.91
870.00	412.71
871.00	407.25
872.00	390.87
873.00	388.53
874.00	393.99
875.00	399.45
876.00	381.51
877.00	376.83
878.00	372.93
879.00	390.09
880.00	403.35
881.00	394.77
882.00	393.21
883.00	381.51
884.00	397.89
885.00	418.96
886.00	428.32
887.00	410.37
888.00	389.31
889.00	390.09
890.00	417.40
891.00	415.84
892.00	409.59
893.00	400.23
894.00	392.43
895.00	384.63
896.00	356.54
897.00	351.86
898.00	354.20
899.00	373.71
900.00	393.99
901.00	401.01
902.00	389.31
903.00	378.39
904.00	397.11
905.00	397.89
906.00	412.71
907.00	388.53
908.00	409.59
909.00	752.87
910.00	757.55
911.00	745.85
912.00	397.11
913.00	394.77
914.00	376.05
915.00	372.15
916.00	370.58
917.00	414.27
918.00	394.77
919.00	395.55
920.00	372.15
921.00	404.13
922.00	398.67
923.00	408.81
924.00	420.52
925.00	424.42
926.00	411.15
927.00	386.97
928.00	390.09
929.00	404.13
930.00	412.71
931.00	397.11
932.00	392.43
933.00	392.43
934.00	422.08
935.00	425.98
936.00	422.86
937.00	408.03
938.00	397.11
939.00	408.81
940.00	397.11
941.00	390.09
942.00	382.29
943.00	407.25
944.00	422.08
945.00	415.06
946.00	395.55
947.00	402.57
948.00	405.69
949.00	410.37
950.00	399.45
951.00	413.49
952.00	423.64
953.00	432.22
954.00	426.76
955.00	417.40
956.00	415.84
957.00	430.66
958.00	433.00
959.00	447.82
960.00	406.47
961.00	418.96
962.00	410.37
963.00	454.06
964.00	442.36
965.00	418.18
966.00	401.79
967.00	379.17
968.00	404.91
969.00	408.81
970.00	415.84
971.00	408.03
972.00	376.83
973.00	362.00
974.00	359.66
975.00	389.31
976.00	391.65
977.00	386.19
978.00	391.65
979.00	434.56
980.00	434.56
981.00	431.44
982.00	411.93
983.00	404.91
984.00	380.73
985.00	371.36
986.00	371.36
987.00	384.63
988.00	397.11
989.00	422.86
990.00	421.30
991.00	424.42
992.00	426.76
993.00	422.08
994.00	418.18
995.00	386.19
996.00	365.12
997.00	375.27
998.00	386.97
999.00	435.34
1000.00	434.56
1001.00	453.28
1002.00	424.42
1003.00	443.14
1004.00	425.20
1005.00	446.26
1006.00	430.66
1007.00	434.56
1008.00	409.59
1009.00	401.79
1010.00	411.15
1011.00	413.49
1012.00	425.20
1013.00	432.22
1014.00	478.25
1015.00	480.59
1016.00	476.69
1017.00	435.34
1018.00	402.57
1019.00	401.01
1020.00	411.15
1021.00	410.37
1022.00	401.79
1023.00	386.97
1024.00	423.64
1025.00	386.19
1026.00	388.53
1027.00	382.29
1028.00	420.52
1029.00	418.96
1030.00	408.81
1031.00	421.30
1032.00	448.60
1033.00	468.89
1034.00	419.74
1035.00	401.79
1036.00	387.75
1037.00	422.08
1038.00	427.54
1039.00	414.27
1040.00	425.98
1041.00	395.55
1042.00	416.62
1043.00	402.57
1044.00	420.52
1045.00	431.44
1046.00	425.98
1047.00	420.52
1048.00	387.75
1049.00	413.49
1050.00	415.84
1051.00	419.74
1052.00	389.31
1053.00	402.57
1054.00	402.57
1055.00	401.01
1056.00	375.27
1057.00	358.10
1058.00	354.20
1059.00	374.49
1060.00	367.46
1061.00	378.39
1062.00	373.71
1063.00	415.06
1064.00	425.98
1065.00	424.42
1066.00	412.71
1067.00	411.93
1068.00	425.20
1069.00	408.03
1070.00	378.39
1071.00	389.31
1072.00	398.67
1073.00	408.81
1074.00	379.95
1075.00	387.75
1076.00	395.55
1077.00	411.15
1078.00	412.71
1079.00	432.22
1080.00	431.44
1081.00	396.33
1082.00	401.01
1083.00	393.99
1084.00	427.54
1085.00	411.93
1086.00	434.56
1087.00	431.44
1088.00	429.10
1089.00	433.00
1090.00	433.78
1091.00	415.84
1092.00	393.21
1093.00	403.35
1094.00	432.22
1095.00	452.50
1096.00	443.14
1097.00	404.91
1098.00	397.11
1099.00	391.65
1100.00	402.57
1101.00	386.97
1102.00	364.34
1103.00	367.46
1104.00	361.22
1105.00	378.39
1106.00	386.97
1107.00	378.39
1108.00	391.65
1109.00	388.53
1110.00	384.63
1111.00	368.24
1112.00	356.54
1113.00	369.80
1114.00	367.46
1115.00	409.59
1116.00	437.68
1117.00	441.58
1118.00	416.62
1119.00	399.45
1120.00	401.01
1121.00	408.81
1122.00	430.66
1123.00	453.28
1124.00	471.23
1125.00	446.26
1126.00	429.10
1127.00	403.35
1128.00	388.53
1129.00	404.91
1130.00	419.74
1131.00	429.88
1132.00	409.59
1133.00	408.81
1134.00	423.64
1135.00	432.22
1136.00	411.15
1137.00	407.25
1138.00	411.93
1139.00	413.49
1140.00	427.54
1141.00	406.47
1142.00	398.67
1143.00	362.00
1144.00	389.31
1145.00	408.81
1146.00	457.18
1147.00	459.53
1148.00	464.99
1149.00	468.89
1150.00	482.15
1151.00	493.07
1152.00	471.23
1153.00	457.96
1154.00	421.30
1155.00	415.84
1156.00	379.95
1157.00	378.39
1158.00	365.12
1159.00	384.63
1160.00	418.18
1161.00	419.74
1162.00	405.69
1163.00	408.03
1164.00	425.20
1165.00	436.12
1166.00	412.71
1167.00	378.39
1168.00	365.12
1169.00	384.63
1170.00	411.93
1171.00	444.70
1172.00	430.66
1173.00	409.59
1174.00	419.74
1175.00	423.64
1176.00	444.70
1177.00	424.42
1178.00	433.78
1179.00	429.10
1180.00	445.48
1181.00	432.22
1182.00	466.55
1183.00	463.43
1184.00	468.89
1185.00	443.92
1186.00	424.42
1187.00	443.92
1188.00	447.82
1189.00	454.06
1190.00	419.74
1191.00	410.37
1192.00	408.81
1193.00	417.40
1194.00	428.32
1195.00	437.68
1196.00	435.34
1197.00	438.46
1198.00	442.36
1199.00	440.80
1200.00	439.24
1201.00	451.72
1202.00	468.89
1203.00	464.21
1204.00	426.76
1205.00	420.52
1206.00	404.13
1207.00	415.84
1208.00	433.78
1209.00	457.96
1210.00	456.40
1211.00	439.24
1212.00	421.30
1213.00	405.69
1214.00	404.13
1215.00	405.69
1216.00	405.69
1217.00	422.08
1218.00	411.15
1219.00	421.30
1220.00	405.69
1221.00	379.17
1222.00	356.54
1223.00	359.66
1224.00	388.53
1225.00	415.06
1226.00	403.35
1227.00	399.45
1228.00	396.33
1229.00	393.21
1230.00	390.09
1231.00	418.96
1232.00	434.56
1233.00	455.62
1234.00	414.27
1235.00	416.62
1236.00	412.71
1237.00	420.52
1238.00	415.84
1239.00	418.18
1240.00	407.25
1241.00	420.52
1242.00	404.91
1243.00	442.36
1244.00	429.88
1245.00	440.80
1246.00	429.88
1247.00	409.59
1248.00	381.51
1249.00	383.07
1250.00	410.37
1251.00	446.26
1252.00	448.60
1253.00	434.56
1254.00	409.59
1255.00	393.21
1256.00	409.59
1257.00	405.69
1258.00	410.37
1259.00	380.73
1260.00	403.35
1261.00	395.55
1262.00	420.52
1263.00	397.11
1264.00	401.79
1265.00	372.15
1266.00	394.77
1267.00	415.06
1268.00	448.60
1269.00	438.46
1270.00	431.44
1271.00	411.93
1272.00	440.80
1273.00	415.84
1274.00	437.68
1275.00	415.06
1276.00	422.08
1277.00	396.33
1278.00	399.45
1279.00	415.84
1280.00	433.78
1281.00	454.84
1282.00	472.79
1283.00	445.48
1284.00	436.90
1285.00	403.35
1286.00	437.68
1287.00	425.20
1288.00	453.28
1289.00	450.94
1290.00	430.66
1291.00	383.85
1292.00	370.58
1293.00	378.39
1294.00	435.34
1295.00	438.46
1296.00	422.08
1297.00	395.55
1298.00	393.21
1299.00	437.68
1300.00	457.96
1301.00	476.69
1302.00	443.92
1303.00	451.72
1304.00	450.94
1305.00	448.60
1306.00	413.49
1307.00	400.23
1308.00	411.93
1309.00	433.78
1310.00	391.65
1311.00	387.75
1312.00	357.32
1313.00	413.49
1314.00	415.06
1315.00	424.42
1316.00	379.95
1317.00	394.77
1318.00	396.33
1319.00	414.27
1320.00	408.81
1321.00	408.03
1322.00	415.06
1323.00	415.06
1324.00	401.79
1325.00	411.93
1326.00	418.18
1327.00	446.26
1328.00	447.04
1329.00	432.22
1330.00	440.80
1331.00	458.74
1332.00	494.63
1333.00	458.75
1334.00	429.88
1335.00	379.17
1336.00	401.79
1337.00	398.67
1338.00	422.86
1339.00	409.59
1340.00	401.01
1341.00	385.41
1342.00	393.21
1343.00	400.23
1344.00	414.27
1345.00	414.27
1346.00	409.59
1347.00	417.40
1348.00	404.13
1349.00	415.84
1350.00	403.35
1351.00	411.15
1352.00	422.08
1353.00	397.89
1354.00	378.39
1355.00	351.86
1356.00	367.46
1357.00	383.85
1358.00	383.85
1359.00	417.40
1360.00	422.08
1361.00	444.70
1362.00	416.62
1363.00	424.42
1364.00	411.15
1365.00	414.27
