SpectraSuite Data File
++++++++++++++++++++++++++++++++++++
Date: Thu Nov 16 14:27:21 EST 2017
User: cheriyan
Dark Spectrum Present: No
Reference Spectrum Present: No
Number of Sampled Component Spectra: 1
Spectrometers: USB2+H05261
Integration Time (usec): 100000 (USB2+H05261)
Spectra Averaged: 1 (USB2+H05261)
Boxcar Smoothing: 1 (USB2+H05261)
Correct for Electrical Dark: No (USB2+H05261)
Strobe/Lamp Enabled: No (USB2+H05261)
Correct for Detector Non-linearity: No (USB2+H05261)
Correct for Stray Light: No (USB2+H05261)
Number of Pixels in Processed Spectrum: 2048
>>>>>Begin Processed Spectral Data<<<<<
0.00	320.65
1.00	320.65
2.00	301.15
3.00	298.03
4.00	283.20
5.00	266.82
6.00	241.86
7.00	240.30
8.00	244.20
9.00	223.13
10.00	209.09
11.00	198.17
12.00	213.77
13.00	218.45
14.00	237.95
15.00	248.88
16.00	224.69
17.00	216.11
18.00	223.13
19.00	262.92
20.00	282.42
21.00	259.80
22.00	271.50
23.00	255.12
24.00	304.27
25.00	295.69
26.00	333.92
27.00	333.14
28.00	319.87
29.00	335.48
30.00	326.89
31.00	369.80
32.00	367.46
33.00	362.00
34.00	362.00
35.00	363.56
36.00	372.93
37.00	357.32
38.00	358.10
39.00	370.58
40.00	378.39
41.00	395.55
42.00	402.57
43.00	389.31
44.00	401.79
45.00	406.47
46.00	402.57
47.00	390.87
48.00	390.87
49.00	423.64
50.00	430.66
51.00	396.33
52.00	389.31
53.00	369.02
54.00	408.03
55.00	420.52
56.00	416.62
57.00	406.47
58.00	379.95
59.00	378.39
60.00	383.85
61.00	387.75
62.00	378.39
63.00	360.44
64.00	365.12
65.00	372.15
66.00	362.00
67.00	359.66
68.00	359.66
69.00	383.85
70.00	383.85
71.00	384.63
72.00	395.55
73.00	388.53
74.00	388.53
75.00	358.10
76.00	364.34
77.00	355.76
78.00	390.87
79.00	397.11
80.00	410.37
81.00	391.65
82.00	369.80
83.00	361.22
84.00	358.10
85.00	392.43
86.00	401.01
87.00	385.41
88.00	385.41
89.00	368.24
90.00	408.03
91.00	385.41
92.00	383.85
93.00	390.87
94.00	382.29
95.00	384.63
96.00	360.44
97.00	386.19
98.00	390.87
99.00	398.67
100.00	411.93
101.00	426.76
102.00	414.27
103.00	390.09
104.00	383.85
105.00	398.67
106.00	415.84
107.00	401.01
108.00	392.43
109.00	397.11
110.00	395.55
111.00	405.69
112.00	390.87
113.00	417.40
114.00	396.33
115.00	386.19
116.00	365.90
117.00	374.49
118.00	373.71
119.00	375.27
120.00	354.20
121.00	354.98
122.00	365.90
123.00	377.61
124.00	372.15
125.00	373.71
126.00	393.99
127.00	431.44
128.00	430.66
129.00	416.62
130.00	410.37
131.00	392.43
132.00	399.45
133.00	398.67
134.00	406.47
135.00	409.59
136.00	391.65
137.00	378.39
138.00	368.24
139.00	354.20
140.00	372.15
141.00	370.58
142.00	390.87
143.00	406.47
144.00	401.79
145.00	401.01
146.00	385.41
147.00	380.73
148.00	340.16
149.00	351.86
150.00	387.75
151.00	414.27
152.00	412.71
153.00	398.67
154.00	396.33
155.00	386.97
156.00	367.46
157.00	362.00
158.00	325.33
159.00	323.77
160.00	340.16
161.00	377.61
162.00	416.62
163.00	424.42
164.00	439.24
165.00	428.32
166.00	443.92
167.00	429.10
168.00	404.91
169.00	390.87
170.00	379.95
171.00	398.67
172.00	398.67
173.00	407.25
174.00	391.65
175.00	369.02
176.00	379.95
177.00	395.55
178.00	406.47
179.00	393.99
180.00	370.58
181.00	396.33
182.00	411.15
183.00	401.79
184.00	365.90
185.00	347.18
186.00	367.46
187.00	364.34
188.00	370.58
189.00	334.70
190.00	345.62
191.00	336.26
192.00	370.58
193.00	368.24
194.00	385.41
195.00	397.89
196.00	403.35
197.00	406.47
198.00	396.33
199.00	397.11
200.00	377.61
201.00	360.44
202.00	348.74
203.00	368.24
204.00	373.71
205.00	397.11
206.00	385.41
207.00	393.21
208.00	373.71
209.00	396.33
210.00	433.78
211.00	473.57
212.00	455.62
213.00	417.40
214.00	366.68
215.00	372.93
216.00	367.46
217.00	391.65
218.00	388.53
219.00	404.91
220.00	408.03
221.00	369.80
222.00	379.95
223.00	365.12
224.00	401.01
225.00	374.49
226.00	372.93
227.00	359.66
228.00	366.68
229.00	379.95
230.00	387.75
231.00	398.67
232.00	380.73
233.00	389.31
234.00	394.77
235.00	431.44
236.00	446.26
237.00	424.42
238.00	395.55
239.00	384.63
240.00	391.65
241.00	408.81
242.00	419.74
243.00	401.01
244.00	394.77
245.00	361.22
246.00	393.99
247.00	411.15
248.00	430.66
249.00	436.90
250.00	397.89
251.00	379.95
252.00	369.80
253.00	390.87
254.00	400.23
255.00	401.79
256.00	401.01
257.00	417.40
258.00	410.37
259.00	411.15
260.00	382.29
261.00	382.29
262.00	380.73
263.00	393.99
264.00	395.55
265.00	393.99
266.00	401.79
267.00	429.10
268.00	436.12
269.00	406.47
270.00	362.00
271.00	362.00
272.00	402.57
273.00	423.64
274.00	418.96
275.00	408.81
276.00	386.19
277.00	401.01
278.00	389.31
279.00	416.62
280.00	397.89
281.00	430.66
282.00	426.76
283.00	450.16
284.00	425.20
285.00	411.93
286.00	369.80
287.00	365.12
288.00	369.80
289.00	376.83
290.00	355.76
291.00	347.18
292.00	351.08
293.00	371.36
294.00	397.11
295.00	400.23
296.00	410.37
297.00	379.95
298.00	388.53
299.00	371.36
300.00	377.61
301.00	372.15
302.00	380.73
303.00	408.03
304.00	411.93
305.00	406.47
306.00	378.39
307.00	379.17
308.00	380.73
309.00	386.97
310.00	376.83
311.00	385.41
312.00	419.74
313.00	402.57
314.00	388.53
315.00	351.08
316.00	387.75
317.00	413.49
318.00	425.20
319.00	399.45
320.00	376.83
321.00	371.36
322.00	405.69
323.00	391.65
324.00	395.55
325.00	383.85
326.00	404.91
327.00	409.59
328.00	399.45
329.00	373.71
330.00	344.06
331.00	355.76
332.00	368.24
333.00	372.93
334.00	364.34
335.00	392.43
336.00	397.89
337.00	410.37
338.00	398.67
339.00	411.15
340.00	413.49
341.00	430.66
342.00	416.62
343.00	413.49
344.00	401.79
345.00	423.64
346.00	426.76
347.00	412.71
348.00	386.19
349.00	354.20
350.00	345.62
351.00	344.06
352.00	387.75
353.00	397.11
354.00	411.15
355.00	380.73
356.00	385.41
357.00	370.58
358.00	383.07
359.00	367.46
360.00	382.29
361.00	351.08
362.00	394.77
363.00	409.59
364.00	454.84
365.00	443.14
366.00	436.90
367.00	413.49
368.00	425.98
369.00	434.56
370.00	454.84
371.00	397.89
372.00	383.85
373.00	373.71
374.00	387.75
375.00	391.65
376.00	379.95
377.00	404.13
378.00	379.95
379.00	398.67
380.00	372.15
381.00	368.24
382.00	370.58
383.00	381.51
384.00	409.59
385.00	389.31
386.00	390.09
387.00	393.21
388.00	378.39
389.00	380.73
390.00	357.32
391.00	379.95
392.00	370.58
393.00	378.39
394.00	379.95
395.00	395.55
396.00	394.77
397.00	393.21
398.00	369.80
399.00	386.19
400.00	365.12
401.00	385.41
402.00	369.80
403.00	381.51
404.00	397.89
405.00	415.06
406.00	414.27
407.00	387.75
408.00	362.00
409.00	376.83
410.00	401.79
411.00	419.74
412.00	411.93
413.00	396.33
414.00	410.37
415.00	394.77
416.00	391.65
417.00	353.42
418.00	360.44
419.00	353.42
420.00	370.58
421.00	351.08
422.00	378.39
423.00	387.75
424.00	398.67
425.00	392.43
426.00	394.77
427.00	398.67
428.00	390.87
429.00	419.74
430.00	447.82
431.00	464.99
432.00	416.62
433.00	388.53
434.00	376.83
435.00	386.97
436.00	411.93
437.00	425.20
438.00	431.44
439.00	439.24
440.00	434.56
441.00	446.26
442.00	441.58
443.00	425.20
444.00	425.20
445.00	407.25
446.00	384.63
447.00	368.24
448.00	370.58
449.00	405.69
450.00	399.45
451.00	401.79
452.00	390.09
453.00	404.13
454.00	390.87
455.00	390.09
456.00	401.79
457.00	415.06
458.00	414.27
459.00	401.01
460.00	401.01
461.00	424.42
462.00	422.08
463.00	416.62
464.00	407.25
465.00	422.86
466.00	412.71
467.00	390.09
468.00	391.65
469.00	411.15
470.00	412.71
471.00	388.53
472.00	365.90
473.00	389.31
474.00	387.75
475.00	376.05
476.00	327.68
477.00	330.02
478.00	351.86
479.00	399.45
480.00	383.85
481.00	384.63
482.00	364.34
483.00	372.93
484.00	393.21
485.00	402.57
486.00	420.52
487.00	394.77
488.00	386.19
489.00	399.45
490.00	411.93
491.00	419.74
492.00	383.07
493.00	375.27
494.00	366.68
495.00	364.34
496.00	358.88
497.00	358.10
498.00	376.05
499.00	374.49
500.00	401.01
501.00	429.10
502.00	433.78
503.00	415.06
504.00	401.01
505.00	410.37
506.00	397.11
507.00	395.55
508.00	405.69
509.00	429.88
510.00	427.54
511.00	424.42
512.00	441.58
513.00	453.28
514.00	451.72
515.00	435.34
516.00	413.49
517.00	420.52
518.00	426.76
519.00	404.13
520.00	379.17
521.00	384.63
522.00	453.28
523.00	450.94
524.00	416.62
525.00	373.71
526.00	361.22
527.00	356.54
528.00	362.78
529.00	389.31
530.00	384.63
531.00	365.12
532.00	346.40
533.00	371.36
534.00	386.19
535.00	414.27
536.00	412.71
537.00	414.27
538.00	380.73
539.00	404.13
540.00	398.67
541.00	402.57
542.00	378.39
543.00	407.25
544.00	439.24
545.00	428.32
546.00	380.73
547.00	359.66
548.00	392.43
549.00	397.89
550.00	402.57
551.00	387.75
552.00	393.99
553.00	417.40
554.00	404.91
555.00	399.45
556.00	372.93
557.00	405.69
558.00	432.22
559.00	459.53
560.00	427.54
561.00	415.06
562.00	394.77
563.00	376.05
564.00	369.80
565.00	366.68
566.00	395.55
567.00	408.03
568.00	424.42
569.00	415.06
570.00	407.25
571.00	415.84
572.00	412.71
573.00	419.74
574.00	404.91
575.00	399.45
576.00	375.27
577.00	359.66
578.00	382.29
579.00	397.11
580.00	405.69
581.00	378.39
582.00	379.95
583.00	395.55
584.00	411.15
585.00	420.52
586.00	404.13
587.00	401.01
588.00	379.95
589.00	370.58
590.00	366.68
591.00	379.17
592.00	379.95
593.00	369.02
594.00	374.49
595.00	383.07
596.00	391.65
597.00	369.02
598.00	359.66
599.00	376.83
600.00	390.87
601.00	401.01
602.00	380.73
603.00	384.63
604.00	388.53
605.00	383.07
606.00	405.69
607.00	380.73
608.00	408.03
609.00	386.97
610.00	411.93
611.00	411.15
612.00	411.93
613.00	409.59
614.00	414.27
615.00	431.44
616.00	439.24
617.00	433.78
618.00	415.06
619.00	403.35
620.00	384.63
621.00	381.51
622.00	368.24
623.00	385.41
624.00	401.79
625.00	426.76
626.00	445.48
627.00	429.10
628.00	425.20
629.00	401.01
630.00	404.13
631.00	381.51
632.00	376.05
633.00	384.63
634.00	414.27
635.00	456.40
636.00	493.85
637.00	543.00
638.00	555.49
639.00	565.63
640.00	550.81
641.00	538.32
642.00	485.27
643.00	449.38
644.00	415.84
645.00	404.13
646.00	390.09
647.00	395.55
648.00	409.59
649.00	390.09
650.00	386.97
651.00	391.65
652.00	427.54
653.00	404.91
654.00	474.35
655.00	457.96
656.00	477.47
657.00	377.61
658.00	390.87
659.00	358.88
660.00	367.46
661.00	364.34
662.00	395.55
663.00	403.35
664.00	372.15
665.00	376.05
666.00	385.41
667.00	436.12
668.00	429.88
669.00	438.46
670.00	383.85
671.00	376.05
672.00	344.06
673.00	365.90
674.00	380.73
675.00	397.11
676.00	395.55
677.00	407.25
678.00	409.59
679.00	438.46
680.00	436.12
681.00	440.80
682.00	430.66
683.00	411.15
684.00	392.43
685.00	394.77
686.00	386.19
687.00	405.69
688.00	397.11
689.00	425.98
690.00	424.42
691.00	426.76
692.00	418.96
693.00	400.23
694.00	415.84
695.00	408.81
696.00	415.06
697.00	354.98
698.00	380.73
699.00	384.63
700.00	433.78
701.00	393.99
702.00	404.13
703.00	395.55
704.00	386.97
705.00	370.58
706.00	382.29
707.00	397.89
708.00	426.76
709.00	415.84
710.00	418.96
711.00	403.35
712.00	403.35
713.00	410.37
714.00	409.59
715.00	417.40
716.00	415.06
717.00	410.37
718.00	457.18
719.00	457.96
720.00	466.55
721.00	408.03
722.00	407.25
723.00	407.25
724.00	421.30
725.00	441.58
726.00	433.78
727.00	420.52
728.00	383.85
729.00	378.39
730.00	366.68
731.00	390.87
732.00	386.19
733.00	408.81
734.00	394.77
735.00	406.47
736.00	376.05
737.00	354.98
738.00	352.64
739.00	360.44
740.00	391.65
741.00	409.59
742.00	421.30
743.00	421.30
744.00	408.81
745.00	393.21
746.00	369.80
747.00	378.39
748.00	386.19
749.00	404.91
750.00	395.55
751.00	397.89
752.00	415.06
753.00	408.81
754.00	411.15
755.00	359.66
756.00	362.78
757.00	371.36
758.00	407.25
759.00	401.79
760.00	398.67
761.00	394.77
762.00	392.43
763.00	402.57
764.00	421.30
765.00	428.32
766.00	401.01
767.00	390.87
768.00	373.71
769.00	380.73
770.00	376.83
771.00	414.27
772.00	426.76
773.00	422.08
774.00	380.73
775.00	372.15
776.00	351.08
777.00	393.21
778.00	401.01
779.00	432.22
780.00	440.80
781.00	430.66
782.00	399.45
783.00	436.12
784.00	450.94
785.00	459.53
786.00	406.47
787.00	381.51
788.00	377.61
789.00	365.12
790.00	379.17
791.00	390.87
792.00	381.51
793.00	351.08
794.00	348.74
795.00	334.70
796.00	362.00
797.00	372.93
798.00	408.03
799.00	407.25
800.00	400.23
801.00	390.87
802.00	383.85
803.00	379.17
804.00	364.34
805.00	368.24
806.00	372.15
807.00	379.95
808.00	409.59
809.00	415.06
810.00	435.34
811.00	424.42
812.00	437.68
813.00	429.10
814.00	417.40
815.00	418.96
816.00	418.18
817.00	422.08
818.00	396.33
819.00	386.19
820.00	398.67
821.00	424.42
822.00	440.02
823.00	420.52
824.00	395.55
825.00	399.45
826.00	406.47
827.00	410.37
828.00	372.15
829.00	354.20
830.00	359.66
831.00	372.15
832.00	383.85
833.00	382.29
834.00	397.89
835.00	387.75
836.00	403.35
837.00	394.77
838.00	419.74
839.00	385.41
840.00	369.02
841.00	351.08
842.00	372.93
843.00	390.09
844.00	408.03
845.00	404.91
846.00	401.01
847.00	379.95
848.00	362.78
849.00	385.41
850.00	399.45
851.00	388.53
852.00	379.17
853.00	370.58
854.00	379.17
855.00	381.51
856.00	368.24
857.00	362.78
858.00	372.15
859.00	386.19
860.00	409.59
861.00	397.11
862.00	419.74
863.00	403.35
864.00	393.99
865.00	376.83
866.00	393.99
867.00	401.79
868.00	408.81
869.00	417.40
870.00	411.15
871.00	396.33
872.00	370.58
873.00	370.58
874.00	386.97
875.00	393.99
876.00	418.18
877.00	416.62
878.00	415.06
879.00	400.23
880.00	415.84
881.00	422.86
882.00	410.37
883.00	405.69
884.00	407.25
885.00	390.09
886.00	369.80
887.00	393.21
888.00	422.08
889.00	422.08
890.00	405.69
891.00	397.89
892.00	396.33
893.00	376.05
894.00	376.05
895.00	368.24
896.00	377.61
897.00	375.27
898.00	402.57
899.00	419.74
900.00	450.94
901.00	471.23
902.00	467.33
903.00	436.90
904.00	399.45
905.00	366.68
906.00	358.88
907.00	349.52
908.00	366.68
909.00	746.63
910.00	796.56
911.00	763.79
912.00	401.79
913.00	347.18
914.00	379.95
915.00	369.02
916.00	392.43
917.00	421.30
918.00	428.32
919.00	404.91
920.00	369.80
921.00	388.53
922.00	407.25
923.00	398.67
924.00	371.36
925.00	371.36
926.00	370.58
927.00	365.90
928.00	365.90
929.00	395.55
930.00	383.85
931.00	368.24
932.00	356.54
933.00	370.58
934.00	393.21
935.00	403.35
936.00	416.62
937.00	411.93
938.00	412.71
939.00	415.84
940.00	422.86
941.00	418.18
942.00	379.17
943.00	356.54
944.00	356.54
945.00	390.87
946.00	418.18
947.00	433.78
948.00	437.68
949.00	428.32
950.00	404.13
951.00	391.65
952.00	387.75
953.00	395.55
954.00	415.84
955.00	415.84
956.00	406.47
957.00	401.01
958.00	376.83
959.00	378.39
960.00	354.98
961.00	361.22
962.00	360.44
963.00	386.97
964.00	374.49
965.00	418.96
966.00	409.59
967.00	452.50
968.00	419.74
969.00	402.57
970.00	373.71
971.00	378.39
972.00	372.93
973.00	376.05
974.00	357.32
975.00	357.32
976.00	349.52
977.00	340.94
978.00	343.28
979.00	380.73
980.00	387.75
981.00	422.08
982.00	417.40
983.00	445.48
984.00	438.46
985.00	415.06
986.00	382.29
987.00	364.34
988.00	377.61
989.00	410.37
990.00	438.46
991.00	422.86
992.00	381.51
993.00	352.64
994.00	352.64
995.00	384.63
996.00	412.71
997.00	406.47
998.00	401.79
999.00	398.67
1000.00	410.37
1001.00	444.70
1002.00	429.88
1003.00	429.10
1004.00	397.11
1005.00	401.79
1006.00	403.35
1007.00	401.79
1008.00	383.85
1009.00	416.62
1010.00	425.98
1011.00	439.24
1012.00	430.66
1013.00	422.08
1014.00	418.18
1015.00	408.81
1016.00	404.13
1017.00	421.30
1018.00	417.40
1019.00	423.64
1020.00	434.56
1021.00	429.10
1022.00	408.81
1023.00	379.95
1024.00	401.79
1025.00	401.79
1026.00	417.40
1027.00	382.29
1028.00	408.81
1029.00	396.33
1030.00	409.59
1031.00	422.08
1032.00	418.18
1033.00	411.93
1034.00	390.87
1035.00	389.31
1036.00	389.31
1037.00	384.63
1038.00	387.75
1039.00	381.51
1040.00	404.13
1041.00	407.25
1042.00	432.22
1043.00	396.33
1044.00	399.45
1045.00	424.42
1046.00	448.60
1047.00	441.58
1048.00	387.75
1049.00	387.75
1050.00	365.90
1051.00	388.53
1052.00	366.68
1053.00	395.55
1054.00	372.15
1055.00	365.90
1056.00	337.04
1057.00	358.10
1058.00	395.55
1059.00	417.40
1060.00	444.70
1061.00	442.36
1062.00	436.12
1063.00	401.01
1064.00	397.11
1065.00	394.77
1066.00	374.49
1067.00	336.26
1068.00	330.02
1069.00	353.42
1070.00	395.55
1071.00	392.43
1072.00	393.99
1073.00	398.67
1074.00	430.66
1075.00	422.86
1076.00	406.47
1077.00	382.29
1078.00	384.63
1079.00	403.35
1080.00	405.69
1081.00	408.81
1082.00	405.69
1083.00	418.18
1084.00	402.57
1085.00	399.45
1086.00	401.01
1087.00	422.08
1088.00	390.09
1089.00	386.19
1090.00	395.55
1091.00	415.84
1092.00	410.37
1093.00	381.51
1094.00	387.75
1095.00	411.15
1096.00	406.47
1097.00	404.13
1098.00	399.45
1099.00	425.98
1100.00	414.27
1101.00	399.45
1102.00	419.74
1103.00	432.22
1104.00	414.27
1105.00	386.19
1106.00	381.51
1107.00	410.37
1108.00	406.47
1109.00	385.41
1110.00	366.68
1111.00	372.15
1112.00	383.85
1113.00	397.89
1114.00	379.17
1115.00	383.07
1116.00	372.93
1117.00	395.55
1118.00	397.89
1119.00	390.87
1120.00	402.57
1121.00	389.31
1122.00	432.22
1123.00	418.18
1124.00	431.44
1125.00	391.65
1126.00	393.21
1127.00	405.69
1128.00	418.18
1129.00	397.11
1130.00	419.74
1131.00	401.01
1132.00	407.25
1133.00	383.07
1134.00	390.87
1135.00	402.57
1136.00	376.05
1137.00	401.01
1138.00	408.03
1139.00	418.96
1140.00	386.97
1141.00	369.02
1142.00	363.56
1143.00	386.19
1144.00	407.25
1145.00	412.71
1146.00	407.25
1147.00	399.45
1148.00	422.08
1149.00	418.96
1150.00	428.32
1151.00	411.93
1152.00	409.59
1153.00	388.53
1154.00	394.77
1155.00	401.79
1156.00	411.93
1157.00	395.55
1158.00	383.85
1159.00	369.02
1160.00	370.58
1161.00	387.75
1162.00	391.65
1163.00	393.99
1164.00	390.09
1165.00	387.75
1166.00	379.95
1167.00	368.24
1168.00	349.52
1169.00	365.12
1170.00	396.33
1171.00	445.48
1172.00	446.26
1173.00	407.25
1174.00	367.46
1175.00	392.43
1176.00	415.06
1177.00	452.50
1178.00	442.36
1179.00	444.70
1180.00	422.08
1181.00	411.93
1182.00	418.18
1183.00	410.37
1184.00	414.27
1185.00	421.30
1186.00	443.14
1187.00	431.44
1188.00	405.69
1189.00	411.93
1190.00	415.84
1191.00	435.34
1192.00	418.18
1193.00	416.62
1194.00	404.13
1195.00	386.19
1196.00	375.27
1197.00	377.61
1198.00	391.65
1199.00	395.55
1200.00	416.62
1201.00	416.62
1202.00	422.08
1203.00	411.15
1204.00	405.69
1205.00	425.98
1206.00	396.33
1207.00	422.86
1208.00	410.37
1209.00	422.08
1210.00	405.69
1211.00	411.93
1212.00	436.12
1213.00	435.34
1214.00	450.94
1215.00	443.92
1216.00	443.14
1217.00	421.30
1218.00	367.46
1219.00	361.22
1220.00	323.77
1221.00	354.20
1222.00	375.27
1223.00	408.03
1224.00	386.97
1225.00	375.27
1226.00	356.54
1227.00	386.19
1228.00	360.44
1229.00	383.07
1230.00	383.07
1231.00	413.49
1232.00	410.37
1233.00	379.95
1234.00	365.12
1235.00	354.98
1236.00	381.51
1237.00	396.33
1238.00	413.49
1239.00	436.12
1240.00	447.82
1241.00	420.52
1242.00	406.47
1243.00	388.53
1244.00	411.15
1245.00	431.44
1246.00	424.42
1247.00	417.40
1248.00	405.69
1249.00	398.67
1250.00	408.81
1251.00	401.79
1252.00	429.88
1253.00	394.77
1254.00	366.68
1255.00	358.88
1256.00	355.76
1257.00	379.17
1258.00	379.17
1259.00	401.01
1260.00	421.30
1261.00	437.68
1262.00	461.09
1263.00	446.26
1264.00	436.12
1265.00	411.93
1266.00	410.37
1267.00	413.49
1268.00	431.44
1269.00	410.37
1270.00	390.87
1271.00	401.01
1272.00	428.32
1273.00	457.18
1274.00	422.86
1275.00	411.15
1276.00	390.09
1277.00	384.63
1278.00	393.21
1279.00	392.43
1280.00	405.69
1281.00	385.41
1282.00	358.88
1283.00	378.39
1284.00	390.09
1285.00	423.64
1286.00	411.93
1287.00	411.15
1288.00	395.55
1289.00	385.41
1290.00	372.15
1291.00	387.75
1292.00	413.49
1293.00	447.82
1294.00	442.36
1295.00	421.30
1296.00	390.09
1297.00	411.15
1298.00	417.40
1299.00	424.42
1300.00	421.30
1301.00	428.32
1302.00	431.44
1303.00	421.30
1304.00	411.15
1305.00	408.81
1306.00	410.37
1307.00	427.54
1308.00	430.66
1309.00	433.00
1310.00	400.23
1311.00	404.13
1312.00	409.59
1313.00	425.20
1314.00	440.02
1315.00	415.84
1316.00	396.33
1317.00	365.12
1318.00	372.15
1319.00	383.07
1320.00	382.29
1321.00	379.95
1322.00	390.87
1323.00	417.40
1324.00	415.06
1325.00	418.96
1326.00	405.69
1327.00	397.89
1328.00	411.15
1329.00	439.24
1330.00	470.45
1331.00	464.99
1332.00	432.22
1333.00	417.40
1334.00	410.37
1335.00	441.58
1336.00	441.58
1337.00	424.42
1338.00	404.13
1339.00	412.71
1340.00	414.27
1341.00	409.59
1342.00	429.88
1343.00	440.02
1344.00	428.32
1345.00	383.85
1346.00	383.07
1347.00	399.45
1348.00	390.87
1349.00	380.73
1350.00	373.71
1351.00	412.71
1352.00	411.93
1353.00	378.39
1354.00	338.60
1355.00	356.54
1356.00	390.09
1357.00	415.84
1358.00	429.10
1359.00	427.54
1360.00	415.06
1361.00	411.15
1362.00	429.88
1363.00	447.04
1364.00	451.72
1365.00	436.90
