SpectraSuite Data File
++++++++++++++++++++++++++++++++++++
Date: Thu Nov 16 14:27:20 EST 2017
User: cheriyan
Dark Spectrum Present: No
Reference Spectrum Present: No
Number of Sampled Component Spectra: 1
Spectrometers: USB2+H05261
Integration Time (usec): 100000 (USB2+H05261)
Spectra Averaged: 1 (USB2+H05261)
Boxcar Smoothing: 1 (USB2+H05261)
Correct for Electrical Dark: No (USB2+H05261)
Strobe/Lamp Enabled: No (USB2+H05261)
Correct for Detector Non-linearity: No (USB2+H05261)
Correct for Stray Light: No (USB2+H05261)
Number of Pixels in Processed Spectrum: 2048
>>>>>Begin Processed Spectral Data<<<<<
0.00	346.40
1.00	346.40
2.00	311.29
3.00	267.60
4.00	218.45
5.00	205.19
6.00	218.45
7.00	241.86
8.00	254.34
9.00	230.15
10.00	202.07
11.00	188.02
12.00	197.39
13.00	216.11
14.00	227.03
15.00	240.30
16.00	235.61
17.00	240.30
18.00	240.30
19.00	246.54
20.00	248.10
21.00	251.22
22.00	280.86
23.00	284.77
24.00	298.81
25.00	292.57
26.00	313.63
27.00	347.96
28.00	366.68
29.00	383.07
30.00	353.42
31.00	331.58
32.00	335.48
33.00	366.68
34.00	388.53
35.00	393.99
36.00	397.89
37.00	409.59
38.00	414.27
39.00	397.89
40.00	386.97
41.00	392.43
42.00	393.99
43.00	415.06
44.00	409.59
45.00	431.44
46.00	418.96
47.00	394.77
48.00	372.93
49.00	358.10
50.00	368.24
51.00	386.19
52.00	397.89
53.00	408.03
54.00	401.01
55.00	393.99
56.00	402.57
57.00	401.01
58.00	400.23
59.00	376.05
60.00	366.68
61.00	380.73
62.00	401.01
63.00	415.84
64.00	411.93
65.00	403.35
66.00	373.71
67.00	368.24
68.00	369.02
69.00	390.09
70.00	399.45
71.00	393.99
72.00	401.01
73.00	385.41
74.00	369.80
75.00	366.68
76.00	367.46
77.00	391.65
78.00	393.21
79.00	415.84
80.00	411.15
81.00	408.03
82.00	397.11
83.00	404.91
84.00	418.96
85.00	432.22
86.00	426.76
87.00	419.74
88.00	422.08
89.00	433.00
90.00	404.13
91.00	396.33
92.00	389.31
93.00	395.55
94.00	395.55
95.00	393.99
96.00	419.74
97.00	429.10
98.00	433.78
99.00	406.47
100.00	397.11
101.00	378.39
102.00	380.73
103.00	384.63
104.00	403.35
105.00	406.47
106.00	375.27
107.00	385.41
108.00	411.93
109.00	425.20
110.00	378.39
111.00	351.08
112.00	347.18
113.00	343.28
114.00	337.82
115.00	350.30
116.00	397.11
117.00	411.93
118.00	417.40
119.00	420.52
120.00	442.36
121.00	425.98
122.00	391.65
123.00	366.68
124.00	370.58
125.00	365.12
126.00	351.86
127.00	353.42
128.00	390.09
129.00	418.96
130.00	411.93
131.00	396.33
132.00	373.71
133.00	378.39
134.00	362.78
135.00	362.78
136.00	380.73
137.00	386.19
138.00	374.49
139.00	377.61
140.00	390.87
141.00	404.13
142.00	383.07
143.00	376.05
144.00	375.27
145.00	369.80
146.00	369.02
147.00	384.63
148.00	398.67
149.00	400.23
150.00	397.11
151.00	372.15
152.00	383.07
153.00	386.97
154.00	418.96
155.00	397.11
156.00	371.36
157.00	348.74
158.00	371.36
159.00	377.61
160.00	393.99
161.00	393.99
162.00	409.59
163.00	398.67
164.00	395.55
165.00	398.67
166.00	405.69
167.00	388.53
168.00	378.39
169.00	387.75
170.00	402.57
171.00	405.69
172.00	391.65
173.00	385.41
174.00	386.19
175.00	385.41
176.00	401.01
177.00	404.91
178.00	404.91
179.00	373.71
180.00	379.95
181.00	363.56
182.00	393.99
183.00	404.91
184.00	398.67
185.00	379.17
186.00	373.71
187.00	379.17
188.00	379.17
189.00	358.88
190.00	364.34
191.00	352.64
192.00	369.02
193.00	393.99
194.00	415.84
195.00	419.74
196.00	416.62
197.00	390.09
198.00	362.78
199.00	360.44
200.00	385.41
201.00	397.89
202.00	379.95
203.00	379.95
204.00	380.73
205.00	369.80
206.00	371.36
207.00	383.85
208.00	397.89
209.00	408.81
210.00	383.07
211.00	388.53
212.00	381.51
213.00	390.09
214.00	386.97
215.00	386.97
216.00	383.85
217.00	408.81
218.00	418.18
219.00	444.70
220.00	411.15
221.00	380.73
222.00	361.22
223.00	354.20
224.00	374.49
225.00	375.27
226.00	397.89
227.00	385.41
228.00	365.90
229.00	358.10
230.00	361.22
231.00	397.11
232.00	402.57
233.00	422.86
234.00	411.15
235.00	397.11
236.00	390.87
237.00	397.89
238.00	426.76
239.00	423.64
240.00	406.47
241.00	393.21
242.00	386.97
243.00	363.56
244.00	369.02
245.00	362.00
246.00	383.07
247.00	396.33
248.00	401.79
249.00	392.43
250.00	383.07
251.00	383.85
252.00	390.87
253.00	395.55
254.00	409.59
255.00	425.98
256.00	409.59
257.00	397.11
258.00	376.83
259.00	366.68
260.00	358.88
261.00	368.24
262.00	412.71
263.00	418.96
264.00	419.74
265.00	385.41
266.00	409.59
267.00	393.99
268.00	415.84
269.00	357.32
270.00	359.66
271.00	325.33
272.00	371.36
273.00	401.79
274.00	444.70
275.00	440.80
276.00	425.98
277.00	405.69
278.00	403.35
279.00	401.79
280.00	415.06
281.00	429.88
282.00	432.22
283.00	425.20
284.00	405.69
285.00	389.31
286.00	372.93
287.00	369.02
288.00	383.85
289.00	407.25
290.00	400.23
291.00	393.21
292.00	378.39
293.00	382.29
294.00	399.45
295.00	369.80
296.00	383.85
297.00	354.20
298.00	377.61
299.00	373.71
300.00	393.21
301.00	381.51
302.00	352.64
303.00	358.88
304.00	360.44
305.00	393.99
306.00	358.10
307.00	371.36
308.00	354.98
309.00	400.23
310.00	397.11
311.00	406.47
312.00	399.45
313.00	397.89
314.00	404.91
315.00	389.31
316.00	391.65
317.00	409.59
318.00	415.06
319.00	408.03
320.00	365.90
321.00	351.86
322.00	348.74
323.00	352.64
324.00	370.58
325.00	384.63
326.00	362.78
327.00	361.22
328.00	347.96
329.00	357.32
330.00	351.08
331.00	360.44
332.00	378.39
333.00	385.41
334.00	399.45
335.00	414.27
336.00	403.35
337.00	399.45
338.00	376.05
339.00	387.75
340.00	392.43
341.00	416.62
342.00	418.96
343.00	407.25
344.00	410.37
345.00	408.81
346.00	422.08
347.00	398.67
348.00	393.99
349.00	404.91
350.00	427.54
351.00	426.76
352.00	415.84
353.00	433.00
354.00	434.56
355.00	422.86
356.00	386.19
357.00	394.77
358.00	386.97
359.00	403.35
360.00	418.18
361.00	429.10
362.00	420.52
363.00	380.73
364.00	366.68
365.00	388.53
366.00	415.06
367.00	425.20
368.00	433.00
369.00	419.74
370.00	436.90
371.00	399.45
372.00	422.86
373.00	401.01
374.00	408.81
375.00	391.65
376.00	386.97
377.00	397.89
378.00	400.23
379.00	414.27
380.00	393.99
381.00	383.07
382.00	347.18
383.00	347.96
384.00	329.24
385.00	353.42
386.00	362.00
387.00	384.63
388.00	410.37
389.00	430.66
390.00	455.62
391.00	453.28
392.00	453.28
393.00	435.34
394.00	424.42
395.00	419.74
396.00	427.54
397.00	425.98
398.00	398.67
399.00	388.53
400.00	381.51
401.00	379.95
402.00	389.31
403.00	412.71
404.00	435.34
405.00	445.48
406.00	434.56
407.00	418.96
408.00	390.09
409.00	377.61
410.00	386.19
411.00	395.55
412.00	421.30
413.00	415.84
414.00	389.31
415.00	369.02
416.00	349.52
417.00	378.39
418.00	376.05
419.00	413.49
420.00	418.96
421.00	420.52
422.00	406.47
423.00	393.99
424.00	383.85
425.00	379.17
426.00	376.83
427.00	364.34
428.00	369.80
429.00	381.51
430.00	399.45
431.00	390.87
432.00	384.63
433.00	368.24
434.00	417.40
435.00	425.20
436.00	444.70
437.00	401.01
438.00	387.75
439.00	384.63
440.00	384.63
441.00	397.89
442.00	414.27
443.00	415.84
444.00	391.65
445.00	347.96
446.00	347.96
447.00	379.95
448.00	414.27
449.00	419.74
450.00	397.89
451.00	393.99
452.00	385.41
453.00	397.89
454.00	394.77
455.00	385.41
456.00	378.39
457.00	368.24
458.00	372.93
459.00	368.24
460.00	370.58
461.00	381.51
462.00	401.01
463.00	386.97
464.00	373.71
465.00	397.89
466.00	418.18
467.00	449.38
468.00	413.49
469.00	409.59
470.00	379.95
471.00	364.34
472.00	377.61
473.00	398.67
474.00	445.48
475.00	446.26
476.00	436.12
477.00	415.06
478.00	418.96
479.00	427.54
480.00	428.32
481.00	429.10
482.00	446.26
483.00	424.42
484.00	413.49
485.00	390.09
486.00	397.11
487.00	399.45
488.00	431.44
489.00	429.10
490.00	422.08
491.00	429.10
492.00	436.90
493.00	450.94
494.00	412.71
495.00	403.35
496.00	373.71
497.00	386.97
498.00	401.79
499.00	432.22
500.00	453.28
501.00	454.84
502.00	449.38
503.00	406.47
504.00	415.84
505.00	398.67
506.00	408.81
507.00	393.21
508.00	398.67
509.00	411.15
510.00	396.33
511.00	405.69
512.00	391.65
513.00	421.30
514.00	441.58
515.00	409.59
516.00	397.11
517.00	397.11
518.00	418.18
519.00	401.01
520.00	342.50
521.00	340.94
522.00	343.28
523.00	402.57
524.00	384.63
525.00	385.41
526.00	336.26
527.00	362.78
528.00	378.39
529.00	378.39
530.00	385.41
531.00	357.32
532.00	369.02
533.00	365.12
534.00	388.53
535.00	408.81
536.00	419.74
537.00	446.26
538.00	438.46
539.00	417.40
540.00	406.47
541.00	408.03
542.00	418.96
543.00	387.75
544.00	381.51
545.00	369.02
546.00	374.49
547.00	393.21
548.00	412.71
549.00	401.79
550.00	357.32
551.00	329.24
552.00	340.94
553.00	361.22
554.00	385.41
555.00	384.63
556.00	381.51
557.00	364.34
558.00	376.05
559.00	397.11
560.00	411.93
561.00	435.34
562.00	414.27
563.00	419.74
564.00	397.11
565.00	392.43
566.00	389.31
567.00	395.55
568.00	411.93
569.00	386.97
570.00	392.43
571.00	419.74
572.00	464.99
573.00	447.04
574.00	422.86
575.00	379.95
576.00	372.93
577.00	376.83
578.00	374.49
579.00	390.87
580.00	390.87
581.00	431.44
582.00	421.30
583.00	425.98
584.00	398.67
585.00	409.59
586.00	410.37
587.00	413.49
588.00	410.37
589.00	380.73
590.00	362.00
591.00	369.02
592.00	369.02
593.00	400.23
594.00	391.65
595.00	406.47
596.00	397.11
597.00	405.69
598.00	433.00
599.00	437.68
600.00	428.32
601.00	404.91
602.00	389.31
603.00	386.19
604.00	389.31
605.00	388.53
606.00	377.61
607.00	366.68
608.00	382.29
609.00	390.09
610.00	410.37
611.00	411.15
612.00	409.59
613.00	403.35
614.00	400.23
615.00	406.47
616.00	400.23
617.00	397.89
618.00	386.19
619.00	384.63
620.00	386.19
621.00	404.13
622.00	393.99
623.00	399.45
624.00	389.31
625.00	408.81
626.00	401.79
627.00	401.79
628.00	384.63
629.00	376.05
630.00	380.73
631.00	408.03
632.00	429.88
633.00	454.06
634.00	482.93
635.00	532.86
636.00	584.35
637.00	636.63
638.00	669.39
639.00	663.15
640.00	609.32
641.00	516.48
642.00	460.31
643.00	403.35
644.00	408.03
645.00	391.65
646.00	411.93
647.00	415.84
648.00	425.98
649.00	419.74
650.00	421.30
651.00	405.69
652.00	399.45
653.00	394.77
654.00	456.40
655.00	448.60
656.00	456.40
657.00	386.97
658.00	401.01
659.00	398.67
660.00	418.96
661.00	410.37
662.00	407.25
663.00	383.07
664.00	379.95
665.00	369.02
666.00	401.79
667.00	405.69
668.00	425.20
669.00	397.89
670.00	404.91
671.00	370.58
672.00	393.99
673.00	411.93
674.00	434.56
675.00	437.68
676.00	433.78
677.00	479.03
678.00	505.56
679.00	515.70
680.00	479.03
681.00	454.84
682.00	427.54
683.00	398.67
684.00	390.09
685.00	388.53
686.00	390.87
687.00	393.99
688.00	383.07
689.00	394.77
690.00	378.39
691.00	408.03
692.00	414.27
693.00	415.84
694.00	383.85
695.00	375.27
696.00	390.09
697.00	422.08
698.00	433.00
699.00	431.44
700.00	428.32
701.00	418.18
702.00	428.32
703.00	429.88
704.00	433.00
705.00	429.88
706.00	436.12
707.00	419.74
708.00	385.41
709.00	351.86
710.00	358.10
711.00	387.75
712.00	386.19
713.00	376.83
714.00	377.61
715.00	416.62
716.00	428.32
717.00	447.04
718.00	473.57
719.00	484.49
720.00	484.49
721.00	450.94
722.00	458.74
723.00	427.54
724.00	424.42
725.00	457.18
726.00	472.01
727.00	434.56
728.00	390.87
729.00	379.95
730.00	424.42
731.00	407.25
732.00	393.21
733.00	363.56
734.00	396.33
735.00	392.43
736.00	395.55
737.00	383.85
738.00	404.13
739.00	406.47
740.00	408.03
741.00	409.59
742.00	404.91
743.00	413.49
744.00	413.49
745.00	418.18
746.00	380.73
747.00	365.90
748.00	372.15
749.00	379.17
750.00	405.69
751.00	387.75
752.00	414.27
753.00	375.27
754.00	385.41
755.00	365.90
756.00	405.69
757.00	430.66
758.00	421.30
759.00	414.27
760.00	396.33
761.00	409.59
762.00	397.89
763.00	397.11
764.00	422.08
765.00	425.20
766.00	433.00
767.00	403.35
768.00	394.77
769.00	372.93
770.00	365.12
771.00	366.68
772.00	369.80
773.00	396.33
774.00	397.11
775.00	407.25
776.00	411.93
777.00	433.00
778.00	432.22
779.00	418.96
780.00	390.87
781.00	401.79
782.00	401.01
783.00	486.05
784.00	492.29
785.00	500.87
786.00	414.27
787.00	368.24
788.00	342.50
789.00	369.80
790.00	400.23
791.00	420.52
792.00	401.79
793.00	379.95
794.00	347.18
795.00	358.10
796.00	367.46
797.00	396.33
798.00	403.35
799.00	415.84
800.00	420.52
801.00	397.89
802.00	390.87
803.00	372.15
804.00	372.15
805.00	369.02
806.00	376.05
807.00	371.36
808.00	358.88
809.00	371.36
810.00	387.75
811.00	408.03
812.00	393.99
813.00	401.01
814.00	408.81
815.00	434.56
816.00	417.40
817.00	417.40
818.00	417.40
819.00	417.40
820.00	418.96
821.00	409.59
822.00	408.81
823.00	379.95
824.00	368.24
825.00	364.34
826.00	392.43
827.00	410.37
828.00	427.54
829.00	438.46
830.00	424.42
831.00	407.25
832.00	376.83
833.00	368.24
834.00	376.05
835.00	372.93
836.00	386.97
837.00	398.67
838.00	411.15
839.00	397.11
840.00	376.05
841.00	366.68
842.00	365.12
843.00	379.17
844.00	409.59
845.00	424.42
846.00	415.84
847.00	383.85
848.00	370.58
849.00	387.75
850.00	397.11
851.00	408.03
852.00	397.89
853.00	415.84
854.00	419.74
855.00	415.06
856.00	398.67
857.00	382.29
858.00	386.19
859.00	389.31
860.00	391.65
861.00	404.13
862.00	409.59
863.00	422.86
864.00	402.57
865.00	417.40
866.00	398.67
867.00	401.01
868.00	376.83
869.00	387.75
870.00	402.57
871.00	412.71
872.00	409.59
873.00	396.33
874.00	383.07
875.00	351.86
876.00	375.27
877.00	347.96
878.00	404.13
879.00	376.83
880.00	425.98
881.00	411.93
882.00	416.62
883.00	410.37
884.00	400.23
885.00	404.91
886.00	413.49
887.00	426.76
888.00	422.86
889.00	419.74
890.00	412.71
891.00	423.64
892.00	403.35
893.00	404.91
894.00	393.21
895.00	407.25
896.00	386.97
897.00	385.41
898.00	376.83
899.00	421.30
900.00	447.04
901.00	434.56
902.00	419.74
903.00	406.47
904.00	416.62
905.00	430.66
906.00	415.06
907.00	425.98
908.00	404.13
909.00	754.43
910.00	752.09
911.00	727.13
912.00	397.11
913.00	394.77
914.00	430.66
915.00	432.22
916.00	421.30
917.00	418.96
918.00	397.11
919.00	414.27
920.00	405.69
921.00	418.96
922.00	404.91
923.00	406.47
924.00	409.59
925.00	399.45
926.00	402.57
927.00	397.11
928.00	404.13
929.00	400.23
930.00	380.73
931.00	384.63
932.00	391.65
933.00	408.81
934.00	415.84
935.00	415.84
936.00	424.42
937.00	440.02
938.00	429.10
939.00	435.34
940.00	433.78
941.00	454.84
942.00	443.92
943.00	448.60
944.00	447.82
945.00	456.40
946.00	412.71
947.00	398.67
948.00	392.43
949.00	428.32
950.00	444.70
951.00	435.34
952.00	427.54
953.00	401.01
954.00	415.84
955.00	424.42
956.00	427.54
957.00	443.14
958.00	440.02
959.00	432.22
960.00	396.33
961.00	394.77
962.00	411.93
963.00	431.44
964.00	410.37
965.00	397.89
966.00	401.79
967.00	403.35
968.00	408.81
969.00	388.53
970.00	390.09
971.00	378.39
972.00	408.81
973.00	411.15
974.00	407.25
975.00	382.29
976.00	372.93
977.00	377.61
978.00	393.21
979.00	418.96
980.00	421.30
981.00	422.86
982.00	410.37
983.00	413.49
984.00	370.58
985.00	378.39
986.00	386.19
987.00	386.19
988.00	385.41
989.00	379.17
990.00	420.52
991.00	405.69
992.00	387.75
993.00	371.36
994.00	382.29
995.00	358.88
996.00	362.00
997.00	344.06
998.00	365.12
999.00	361.22
1000.00	361.22
1001.00	388.53
1002.00	397.11
1003.00	421.30
1004.00	401.01
1005.00	392.43
1006.00	406.47
1007.00	431.44
1008.00	443.92
1009.00	449.38
1010.00	457.96
1011.00	451.72
1012.00	415.06
1013.00	376.05
1014.00	358.10
1015.00	363.56
1016.00	381.51
1017.00	396.33
1018.00	385.41
1019.00	378.39
1020.00	386.19
1021.00	395.55
1022.00	404.13
1023.00	377.61
1024.00	394.77
1025.00	408.03
1026.00	447.82
1027.00	442.36
1028.00	424.42
1029.00	405.69
1030.00	418.18
1031.00	414.27
1032.00	435.34
1033.00	408.03
1034.00	393.21
1035.00	378.39
1036.00	397.11
1037.00	425.98
1038.00	407.25
1039.00	396.33
1040.00	391.65
1041.00	394.77
1042.00	430.66
1043.00	399.45
1044.00	412.71
1045.00	420.52
1046.00	449.38
1047.00	421.30
1048.00	389.31
1049.00	390.87
1050.00	396.33
1051.00	377.61
1052.00	361.22
1053.00	336.26
1054.00	342.50
1055.00	363.56
1056.00	386.19
1057.00	380.73
1058.00	340.16
1059.00	362.78
1060.00	348.74
1061.00	379.95
1062.00	365.12
1063.00	400.23
1064.00	404.91
1065.00	427.54
1066.00	398.67
1067.00	392.43
1068.00	372.15
1069.00	377.61
1070.00	372.15
1071.00	371.36
1072.00	383.07
1073.00	395.55
1074.00	408.03
1075.00	411.93
1076.00	411.15
1077.00	404.13
1078.00	391.65
1079.00	404.13
1080.00	401.01
1081.00	415.06
1082.00	401.79
1083.00	411.15
1084.00	408.03
1085.00	401.01
1086.00	425.20
1087.00	446.26
1088.00	467.33
1089.00	436.12
1090.00	443.92
1091.00	410.37
1092.00	433.00
1093.00	403.35
1094.00	444.70
1095.00	425.20
1096.00	425.20
1097.00	404.13
1098.00	400.23
1099.00	401.79
1100.00	399.45
1101.00	397.11
1102.00	397.11
1103.00	380.73
1104.00	355.76
1105.00	343.28
1106.00	360.44
1107.00	383.85
1108.00	385.41
1109.00	378.39
1110.00	380.73
1111.00	400.23
1112.00	418.96
1113.00	447.04
1114.00	421.30
1115.00	421.30
1116.00	392.43
1117.00	388.53
1118.00	386.19
1119.00	401.79
1120.00	425.98
1121.00	421.30
1122.00	428.32
1123.00	416.62
1124.00	425.98
1125.00	422.86
1126.00	437.68
1127.00	437.68
1128.00	436.12
1129.00	444.70
1130.00	440.80
1131.00	430.66
1132.00	424.42
1133.00	425.20
1134.00	416.62
1135.00	401.79
1136.00	379.17
1137.00	384.63
1138.00	393.99
1139.00	424.42
1140.00	426.76
1141.00	418.18
1142.00	387.75
1143.00	387.75
1144.00	372.15
1145.00	376.83
1146.00	375.27
1147.00	381.51
1148.00	424.42
1149.00	436.90
1150.00	461.87
1151.00	431.44
1152.00	436.12
1153.00	429.88
1154.00	431.44
1155.00	406.47
1156.00	411.15
1157.00	387.75
1158.00	384.63
1159.00	370.58
1160.00	394.77
1161.00	418.96
1162.00	429.88
1163.00	430.66
1164.00	411.93
1165.00	397.89
1166.00	393.99
1167.00	394.77
1168.00	407.25
1169.00	373.71
1170.00	370.58
1171.00	398.67
1172.00	456.40
1173.00	450.94
1174.00	410.37
1175.00	377.61
1176.00	408.03
1177.00	383.85
1178.00	408.81
1179.00	412.71
1180.00	438.46
1181.00	447.82
1182.00	446.26
1183.00	477.47
1184.00	439.24
1185.00	434.56
1186.00	407.25
1187.00	408.81
1188.00	397.11
1189.00	386.97
1190.00	386.19
1191.00	383.85
1192.00	360.44
1193.00	369.80
1194.00	382.29
1195.00	415.06
1196.00	418.18
1197.00	393.99
1198.00	411.93
1199.00	425.20
1200.00	446.26
1201.00	422.86
1202.00	414.27
1203.00	419.74
1204.00	434.56
1205.00	443.92
1206.00	439.24
1207.00	456.40
1208.00	472.01
1209.00	468.11
1210.00	450.16
1211.00	430.66
1212.00	420.52
1213.00	436.12
1214.00	450.94
1215.00	457.18
1216.00	413.49
1217.00	369.80
1218.00	366.68
1219.00	397.89
1220.00	427.54
1221.00	428.32
1222.00	420.52
1223.00	414.27
1224.00	442.36
1225.00	430.66
1226.00	422.08
1227.00	382.29
1228.00	386.97
1229.00	377.61
1230.00	406.47
1231.00	408.81
1232.00	420.52
1233.00	427.54
1234.00	464.21
1235.00	463.43
1236.00	441.58
1237.00	429.10
1238.00	442.36
1239.00	435.34
1240.00	414.27
1241.00	432.22
1242.00	425.98
1243.00	463.43
1244.00	432.22
1245.00	450.94
1246.00	415.06
1247.00	401.79
1248.00	392.43
1249.00	399.45
1250.00	382.29
1251.00	390.09
1252.00	375.27
1253.00	404.13
1254.00	397.89
1255.00	395.55
1256.00	391.65
1257.00	380.73
1258.00	379.17
1259.00	408.81
1260.00	414.27
1261.00	422.86
1262.00	386.19
1263.00	382.29
1264.00	370.58
1265.00	387.75
1266.00	413.49
1267.00	411.93
1268.00	415.06
1269.00	399.45
1270.00	403.35
1271.00	403.35
1272.00	395.55
1273.00	418.18
1274.00	406.47
1275.00	392.43
1276.00	369.02
1277.00	364.34
1278.00	405.69
1279.00	421.30
1280.00	418.18
1281.00	415.06
1282.00	406.47
1283.00	408.03
1284.00	413.49
1285.00	417.40
1286.00	408.81
1287.00	372.93
1288.00	372.93
1289.00	414.27
1290.00	418.96
1291.00	400.23
1292.00	390.87
1293.00	384.63
1294.00	400.23
1295.00	377.61
1296.00	381.51
1297.00	373.71
1298.00	390.87
1299.00	408.81
1300.00	414.27
1301.00	418.18
1302.00	390.87
1303.00	389.31
1304.00	370.58
1305.00	405.69
1306.00	421.30
1307.00	430.66
1308.00	423.64
1309.00	439.24
1310.00	429.88
1311.00	421.30
1312.00	390.87
1313.00	428.32
1314.00	434.56
1315.00	434.56
1316.00	401.79
1317.00	390.09
1318.00	393.21
1319.00	388.53
1320.00	397.89
1321.00	401.79
1322.00	400.23
1323.00	414.27
1324.00	423.64
1325.00	421.30
1326.00	422.86
1327.00	430.66
1328.00	467.33
1329.00	448.60
1330.00	461.09
1331.00	464.99
1332.00	468.11
1333.00	432.22
1334.00	411.15
1335.00	402.57
1336.00	408.81
1337.00	399.45
1338.00	416.62
1339.00	424.42
1340.00	418.18
1341.00	426.76
1342.00	408.81
1343.00	397.89
1344.00	372.93
1345.00	400.23
1346.00	411.15
1347.00	433.00
1348.00	410.37
1349.00	429.88
1350.00	415.06
1351.00	425.98
1352.00	431.44
1353.00	426.76
1354.00	419.74
1355.00	390.09
1356.00	399.45
1357.00	433.00
1358.00	457.96
1359.00	446.26
1360.00	409.59
1361.00	391.65
1362.00	413.49
1363.00	424.42
1364.00	447.82
1365.00	436.12
