SpectraSuite Data File
++++++++++++++++++++++++++++++++++++
Date: Thu Nov 16 14:27:18 EST 2017
User: cheriyan
Dark Spectrum Present: No
Reference Spectrum Present: No
Number of Sampled Component Spectra: 1
Spectrometers: USB2+H05261
Integration Time (usec): 100000 (USB2+H05261)
Spectra Averaged: 1 (USB2+H05261)
Boxcar Smoothing: 1 (USB2+H05261)
Correct for Electrical Dark: No (USB2+H05261)
Strobe/Lamp Enabled: No (USB2+H05261)
Correct for Detector Non-linearity: No (USB2+H05261)
Correct for Stray Light: No (USB2+H05261)
Number of Pixels in Processed Spectrum: 2048
>>>>>Begin Processed Spectral Data<<<<<
0.00	311.29
1.00	311.29
2.00	310.51
3.00	268.38
4.00	240.30
5.00	208.31
6.00	201.29
7.00	195.82
8.00	202.07
9.00	221.57
10.00	225.47
11.00	233.27
12.00	217.67
13.00	218.45
14.00	227.81
15.00	233.27
16.00	227.03
17.00	208.31
18.00	239.51
19.00	253.56
20.00	266.82
21.00	241.08
22.00	244.20
23.00	262.14
24.00	284.77
25.00	286.33
26.00	309.73
27.00	369.02
28.00	391.65
29.00	393.99
30.00	358.88
31.00	337.04
32.00	303.49
33.00	283.20
34.00	318.31
35.00	363.56
36.00	398.67
37.00	411.15
38.00	379.95
39.00	359.66
40.00	348.74
41.00	362.78
42.00	373.71
43.00	386.97
44.00	388.53
45.00	395.55
46.00	389.31
47.00	398.67
48.00	403.35
49.00	405.69
50.00	406.47
51.00	398.67
52.00	390.87
53.00	378.39
54.00	401.79
55.00	390.87
56.00	370.58
57.00	358.10
58.00	367.46
59.00	384.63
60.00	380.73
61.00	391.65
62.00	397.11
63.00	394.77
64.00	390.87
65.00	395.55
66.00	409.59
67.00	434.56
68.00	434.56
69.00	416.62
70.00	406.47
71.00	401.79
72.00	425.98
73.00	390.87
74.00	419.74
75.00	393.21
76.00	389.31
77.00	370.58
78.00	362.78
79.00	369.80
80.00	354.20
81.00	354.20
82.00	351.08
83.00	362.00
84.00	365.12
85.00	348.74
86.00	349.52
87.00	358.10
88.00	407.25
89.00	410.37
90.00	404.91
91.00	391.65
92.00	372.15
93.00	377.61
94.00	376.83
95.00	389.31
96.00	403.35
97.00	414.27
98.00	414.27
99.00	409.59
100.00	393.21
101.00	377.61
102.00	357.32
103.00	352.64
104.00	351.08
105.00	348.74
106.00	368.24
107.00	382.29
108.00	386.97
109.00	367.46
110.00	358.10
111.00	380.73
112.00	380.73
113.00	388.53
114.00	383.85
115.00	398.67
116.00	392.43
117.00	394.77
118.00	397.11
119.00	398.67
120.00	391.65
121.00	385.41
122.00	411.15
123.00	403.35
124.00	401.79
125.00	404.13
126.00	397.11
127.00	387.75
128.00	375.27
129.00	401.01
130.00	431.44
131.00	418.18
132.00	396.33
133.00	354.20
134.00	356.54
135.00	370.58
136.00	361.22
137.00	358.10
138.00	362.00
139.00	403.35
140.00	411.93
141.00	435.34
142.00	441.58
143.00	432.22
144.00	386.97
145.00	354.20
146.00	369.02
147.00	400.23
148.00	402.57
149.00	396.33
150.00	389.31
151.00	395.55
152.00	387.75
153.00	367.46
154.00	387.75
155.00	414.27
156.00	415.06
157.00	401.79
158.00	383.07
159.00	384.63
160.00	396.33
161.00	393.21
162.00	412.71
163.00	406.47
164.00	390.87
165.00	357.32
166.00	351.86
167.00	355.76
168.00	382.29
169.00	372.15
170.00	407.25
171.00	418.96
172.00	426.76
173.00	440.02
174.00	461.09
175.00	476.69
176.00	457.96
177.00	397.89
178.00	366.68
179.00	336.26
180.00	363.56
181.00	370.58
182.00	379.17
183.00	364.34
184.00	372.93
185.00	379.17
186.00	372.15
187.00	398.67
188.00	383.85
189.00	406.47
190.00	390.87
191.00	409.59
192.00	418.18
193.00	399.45
194.00	389.31
195.00	358.88
196.00	393.99
197.00	377.61
198.00	398.67
199.00	389.31
200.00	411.93
201.00	402.57
202.00	393.21
203.00	379.95
204.00	397.89
205.00	387.75
206.00	411.15
207.00	379.95
208.00	408.81
209.00	406.47
210.00	422.86
211.00	403.35
212.00	402.57
213.00	399.45
214.00	394.77
215.00	390.87
216.00	393.99
217.00	389.31
218.00	400.23
219.00	393.21
220.00	387.75
221.00	364.34
222.00	375.27
223.00	395.55
224.00	394.77
225.00	391.65
226.00	382.29
227.00	408.03
228.00	397.11
229.00	425.20
230.00	401.79
231.00	408.03
232.00	377.61
233.00	396.33
234.00	396.33
235.00	411.15
236.00	395.55
237.00	383.85
238.00	374.49
239.00	361.22
240.00	343.28
241.00	357.32
242.00	381.51
243.00	408.81
244.00	396.33
245.00	387.75
246.00	412.71
247.00	403.35
248.00	399.45
249.00	376.83
250.00	372.93
251.00	383.85
252.00	398.67
253.00	384.63
254.00	383.85
255.00	381.51
256.00	380.73
257.00	380.73
258.00	377.61
259.00	400.23
260.00	401.01
261.00	387.75
262.00	366.68
263.00	375.27
264.00	380.73
265.00	418.96
266.00	415.06
267.00	444.70
268.00	443.92
269.00	416.62
270.00	370.58
271.00	355.76
272.00	378.39
273.00	373.71
274.00	365.90
275.00	371.36
276.00	427.54
277.00	453.28
278.00	453.28
279.00	429.88
280.00	408.81
281.00	404.91
282.00	418.96
283.00	421.30
284.00	439.24
285.00	408.03
286.00	426.76
287.00	417.40
288.00	433.78
289.00	436.12
290.00	428.32
291.00	417.40
292.00	417.40
293.00	396.33
294.00	399.45
295.00	390.09
296.00	399.45
297.00	405.69
298.00	376.83
299.00	379.17
300.00	377.61
301.00	384.63
302.00	389.31
303.00	376.05
304.00	371.36
305.00	383.85
306.00	413.49
307.00	424.42
308.00	413.49
309.00	369.02
310.00	374.49
311.00	357.32
312.00	380.73
313.00	376.83
314.00	390.87
315.00	370.58
316.00	370.58
317.00	362.00
318.00	375.27
319.00	380.73
320.00	372.15
321.00	366.68
322.00	369.02
323.00	363.56
324.00	381.51
325.00	365.90
326.00	395.55
327.00	376.83
328.00	373.71
329.00	356.54
330.00	366.68
331.00	386.19
332.00	393.99
333.00	397.11
334.00	381.51
335.00	399.45
336.00	418.96
337.00	429.88
338.00	411.15
339.00	388.53
340.00	369.02
341.00	379.95
342.00	375.27
343.00	386.97
344.00	385.41
345.00	404.13
346.00	407.25
347.00	417.40
348.00	415.84
349.00	422.08
350.00	376.05
351.00	381.51
352.00	395.55
353.00	434.56
354.00	422.86
355.00	399.45
356.00	397.89
357.00	397.11
358.00	400.23
359.00	383.85
360.00	380.73
361.00	403.35
362.00	418.96
363.00	418.96
364.00	396.33
365.00	372.15
366.00	365.90
367.00	375.27
368.00	418.96
369.00	409.59
370.00	411.15
371.00	386.97
372.00	411.93
373.00	401.01
374.00	388.53
375.00	391.65
376.00	413.49
377.00	420.52
378.00	407.25
379.00	409.59
380.00	428.32
381.00	421.30
382.00	393.21
383.00	350.30
384.00	360.44
385.00	369.02
386.00	415.06
387.00	411.15
388.00	396.33
389.00	384.63
390.00	394.77
391.00	405.69
392.00	388.53
393.00	369.02
394.00	387.75
395.00	414.27
396.00	401.01
397.00	373.71
398.00	329.24
399.00	348.74
400.00	369.80
401.00	384.63
402.00	379.95
403.00	351.08
404.00	358.10
405.00	382.29
406.00	409.59
407.00	425.20
408.00	408.03
409.00	401.79
410.00	404.91
411.00	417.40
412.00	421.30
413.00	404.13
414.00	380.73
415.00	386.19
416.00	400.23
417.00	425.98
418.00	404.13
419.00	406.47
420.00	407.25
421.00	436.90
422.00	415.84
423.00	365.90
424.00	352.64
425.00	370.58
426.00	420.52
427.00	425.20
428.00	408.81
429.00	419.74
430.00	414.27
431.00	438.46
432.00	401.01
433.00	391.65
434.00	358.10
435.00	391.65
436.00	398.67
437.00	429.88
438.00	409.59
439.00	413.49
440.00	404.13
441.00	407.25
442.00	404.13
443.00	401.01
444.00	413.49
445.00	401.79
446.00	396.33
447.00	378.39
448.00	385.41
449.00	379.17
450.00	372.93
451.00	396.33
452.00	440.02
453.00	450.94
454.00	418.18
455.00	383.85
456.00	399.45
457.00	408.03
458.00	411.15
459.00	380.73
460.00	367.46
461.00	369.80
462.00	399.45
463.00	422.86
464.00	441.58
465.00	426.76
466.00	441.58
467.00	411.15
468.00	388.53
469.00	368.24
470.00	382.29
471.00	397.11
472.00	398.67
473.00	394.77
474.00	418.96
475.00	422.08
476.00	425.98
477.00	408.81
478.00	422.08
479.00	440.80
480.00	450.16
481.00	441.58
482.00	422.08
483.00	403.35
484.00	362.78
485.00	366.68
486.00	383.07
487.00	436.12
488.00	422.08
489.00	415.84
490.00	410.37
491.00	396.33
492.00	405.69
493.00	397.89
494.00	450.16
495.00	457.18
496.00	441.58
497.00	402.57
498.00	384.63
499.00	390.87
500.00	412.71
501.00	436.90
502.00	429.88
503.00	411.15
504.00	404.13
505.00	393.99
506.00	408.03
507.00	395.55
508.00	411.93
509.00	409.59
510.00	408.03
511.00	444.70
512.00	455.62
513.00	479.03
514.00	461.09
515.00	447.82
516.00	419.74
517.00	405.69
518.00	421.30
519.00	411.15
520.00	400.23
521.00	354.20
522.00	379.17
523.00	401.79
524.00	422.08
525.00	420.52
526.00	424.42
527.00	442.36
528.00	422.86
529.00	375.27
530.00	358.88
531.00	351.08
532.00	377.61
533.00	369.02
534.00	407.25
535.00	409.59
536.00	409.59
537.00	390.87
538.00	391.65
539.00	411.15
540.00	425.20
541.00	421.30
542.00	414.27
543.00	431.44
544.00	426.76
545.00	426.76
546.00	360.44
547.00	372.93
548.00	375.27
549.00	423.64
550.00	404.91
551.00	366.68
552.00	332.36
553.00	347.96
554.00	383.07
555.00	416.62
556.00	428.32
557.00	429.10
558.00	422.08
559.00	422.08
560.00	406.47
561.00	389.31
562.00	367.46
563.00	379.17
564.00	385.41
565.00	396.33
566.00	398.67
567.00	401.01
568.00	395.55
569.00	387.75
570.00	371.36
571.00	385.41
572.00	393.21
573.00	425.20
574.00	422.08
575.00	417.40
576.00	379.17
577.00	354.20
578.00	365.12
579.00	406.47
580.00	416.62
581.00	425.20
582.00	394.77
583.00	396.33
584.00	383.07
585.00	411.93
586.00	406.47
587.00	408.81
588.00	385.41
589.00	390.87
590.00	384.63
591.00	407.25
592.00	425.98
593.00	426.76
594.00	447.82
595.00	435.34
596.00	441.58
597.00	390.09
598.00	397.89
599.00	410.37
600.00	422.08
601.00	430.66
602.00	418.96
603.00	444.70
604.00	433.78
605.00	428.32
606.00	426.76
607.00	422.86
608.00	441.58
609.00	425.98
610.00	419.74
611.00	413.49
612.00	395.55
613.00	397.11
614.00	367.46
615.00	404.13
616.00	397.89
617.00	405.69
618.00	372.93
619.00	391.65
620.00	393.99
621.00	408.03
622.00	399.45
623.00	396.33
624.00	375.27
625.00	385.41
626.00	412.71
627.00	439.24
628.00	430.66
629.00	411.15
630.00	367.46
631.00	355.76
632.00	367.46
633.00	443.92
634.00	510.24
635.00	595.28
636.00	660.03
637.00	706.06
638.00	707.62
639.00	659.25
640.00	607.76
641.00	532.86
642.00	496.97
643.00	432.22
644.00	412.71
645.00	404.13
646.00	382.29
647.00	391.65
648.00	361.22
649.00	429.10
650.00	423.64
651.00	439.24
652.00	385.41
653.00	369.80
654.00	413.49
655.00	434.56
656.00	458.75
657.00	407.25
658.00	411.15
659.00	401.01
660.00	389.31
661.00	372.15
662.00	377.61
663.00	401.01
664.00	391.65
665.00	401.79
666.00	378.39
667.00	393.99
668.00	379.17
669.00	400.23
670.00	401.01
671.00	390.09
672.00	381.51
673.00	383.07
674.00	382.29
675.00	411.93
676.00	436.12
677.00	437.68
678.00	417.40
679.00	424.42
680.00	449.38
681.00	453.28
682.00	442.36
683.00	398.67
684.00	382.29
685.00	349.52
686.00	366.68
687.00	369.80
688.00	401.79
689.00	396.33
690.00	398.67
691.00	373.71
692.00	387.75
693.00	391.65
694.00	390.87
695.00	386.19
696.00	389.31
697.00	408.81
698.00	415.06
699.00	408.81
700.00	412.71
701.00	415.84
702.00	432.22
703.00	447.04
704.00	443.92
705.00	411.15
706.00	377.61
707.00	404.91
708.00	408.81
709.00	405.69
710.00	377.61
711.00	408.81
712.00	409.59
713.00	401.01
714.00	379.17
715.00	411.93
716.00	417.40
717.00	447.82
718.00	461.87
719.00	450.94
720.00	433.78
721.00	415.06
722.00	441.58
723.00	426.76
724.00	433.00
725.00	436.12
726.00	450.16
727.00	440.80
728.00	428.32
729.00	443.14
730.00	421.30
731.00	404.13
732.00	383.07
733.00	385.41
734.00	380.73
735.00	367.46
736.00	370.58
737.00	377.61
738.00	405.69
739.00	398.67
740.00	382.29
741.00	351.86
742.00	369.80
743.00	428.32
744.00	457.96
745.00	439.24
746.00	404.91
747.00	408.03
748.00	397.89
749.00	374.49
750.00	350.30
751.00	372.15
752.00	386.19
753.00	386.19
754.00	380.73
755.00	404.91
756.00	411.93
757.00	414.27
758.00	393.99
759.00	366.68
760.00	356.54
761.00	362.00
762.00	398.67
763.00	413.49
764.00	418.96
765.00	403.35
766.00	404.91
767.00	428.32
768.00	434.56
769.00	423.64
770.00	399.45
771.00	405.69
772.00	409.59
773.00	422.86
774.00	425.20
775.00	443.92
776.00	435.34
777.00	441.58
778.00	448.60
779.00	422.08
780.00	395.55
781.00	386.97
782.00	391.65
783.00	450.16
784.00	444.70
785.00	454.84
786.00	404.13
787.00	386.97
788.00	389.31
789.00	400.23
790.00	442.36
791.00	429.10
792.00	434.56
793.00	403.35
794.00	425.20
795.00	426.76
796.00	421.30
797.00	415.06
798.00	400.23
799.00	411.15
800.00	406.47
801.00	418.18
802.00	420.52
803.00	415.06
804.00	416.62
805.00	399.45
806.00	402.57
807.00	377.61
808.00	367.46
809.00	349.52
810.00	379.95
811.00	388.53
812.00	418.96
813.00	410.37
814.00	410.37
815.00	411.93
816.00	390.09
817.00	407.25
818.00	390.87
819.00	397.89
820.00	381.51
821.00	384.63
822.00	393.21
823.00	383.07
824.00	366.68
825.00	386.97
826.00	400.23
827.00	427.54
828.00	390.87
829.00	379.95
830.00	380.73
831.00	379.95
832.00	397.89
833.00	408.03
834.00	425.98
835.00	401.01
836.00	374.49
837.00	381.51
838.00	410.37
839.00	408.03
840.00	393.21
841.00	380.73
842.00	385.41
843.00	381.51
844.00	395.55
845.00	395.55
846.00	419.74
847.00	394.77
848.00	396.33
849.00	370.58
850.00	386.97
851.00	378.39
852.00	412.71
853.00	398.67
854.00	431.44
855.00	422.86
856.00	421.30
857.00	384.63
858.00	371.36
859.00	367.46
860.00	377.61
861.00	369.02
862.00	383.85
863.00	388.53
864.00	409.59
865.00	417.40
866.00	421.30
867.00	420.52
868.00	404.91
869.00	380.73
870.00	364.34
871.00	376.83
872.00	413.49
873.00	407.25
874.00	374.49
875.00	351.08
876.00	362.00
877.00	406.47
878.00	422.86
879.00	411.15
880.00	416.62
881.00	404.91
882.00	401.01
883.00	392.43
884.00	401.79
885.00	404.13
886.00	390.09
887.00	390.09
888.00	418.96
889.00	435.34
890.00	433.78
891.00	429.88
892.00	439.24
893.00	425.98
894.00	401.79
895.00	380.73
896.00	379.17
897.00	390.87
898.00	383.85
899.00	419.74
900.00	433.78
901.00	443.92
902.00	422.86
903.00	408.03
904.00	382.29
905.00	398.67
906.00	391.65
907.00	411.93
908.00	384.63
909.00	745.85
910.00	745.07
911.00	748.97
912.00	404.13
913.00	408.81
914.00	427.54
915.00	422.08
916.00	393.99
917.00	377.61
918.00	365.90
919.00	401.79
920.00	404.91
921.00	417.40
922.00	423.64
923.00	436.12
924.00	455.62
925.00	446.26
926.00	459.53
927.00	440.02
928.00	457.18
929.00	426.76
930.00	440.02
931.00	406.47
932.00	391.65
933.00	380.73
934.00	380.73
935.00	401.01
936.00	388.53
937.00	401.01
938.00	413.49
939.00	443.14
940.00	454.84
941.00	456.40
942.00	440.80
943.00	433.78
944.00	409.59
945.00	434.56
946.00	437.68
947.00	480.59
948.00	447.82
949.00	443.14
950.00	423.64
951.00	407.25
952.00	429.10
953.00	404.13
954.00	416.62
955.00	381.51
956.00	401.01
957.00	417.40
958.00	407.25
959.00	405.69
960.00	397.89
961.00	418.18
962.00	415.84
963.00	402.57
964.00	381.51
965.00	392.43
966.00	397.89
967.00	414.27
968.00	403.35
969.00	418.96
970.00	419.74
971.00	422.86
972.00	392.43
973.00	351.86
974.00	343.28
975.00	327.68
976.00	366.68
977.00	350.30
978.00	397.11
979.00	409.59
980.00	401.01
981.00	393.99
982.00	383.85
983.00	404.91
984.00	407.25
985.00	396.33
986.00	386.97
987.00	376.05
988.00	379.95
989.00	411.15
990.00	437.68
991.00	449.38
992.00	433.78
993.00	399.45
994.00	403.35
995.00	387.75
996.00	395.55
997.00	361.22
998.00	361.22
999.00	385.41
1000.00	401.01
1001.00	430.66
1002.00	401.79
1003.00	412.71
1004.00	390.09
1005.00	397.11
1006.00	389.31
1007.00	397.11
1008.00	402.57
1009.00	428.32
1010.00	443.14
1011.00	418.96
1012.00	422.08
1013.00	404.13
1014.00	414.27
1015.00	403.35
1016.00	394.77
1017.00	423.64
1018.00	406.47
1019.00	411.93
1020.00	387.75
1021.00	386.19
1022.00	415.06
1023.00	412.71
1024.00	420.52
1025.00	393.99
1026.00	384.63
1027.00	407.25
1028.00	386.19
1029.00	419.74
1030.00	416.62
1031.00	454.84
1032.00	447.82
1033.00	415.84
1034.00	394.77
1035.00	386.97
1036.00	383.85
1037.00	387.75
1038.00	367.46
1039.00	386.97
1040.00	386.97
1041.00	415.06
1042.00	422.86
1043.00	416.62
1044.00	425.20
1045.00	445.48
1046.00	448.60
1047.00	402.57
1048.00	375.27
1049.00	376.83
1050.00	390.87
1051.00	379.17
1052.00	406.47
1053.00	407.25
1054.00	386.97
1055.00	360.44
1056.00	386.19
1057.00	414.27
1058.00	418.18
1059.00	414.27
1060.00	420.52
1061.00	417.40
1062.00	390.09
1063.00	373.71
1064.00	407.25
1065.00	401.01
1066.00	371.36
1067.00	308.17
1068.00	329.24
1069.00	372.93
1070.00	402.57
1071.00	427.54
1072.00	422.86
1073.00	410.37
1074.00	396.33
1075.00	398.67
1076.00	430.66
1077.00	446.26
1078.00	459.53
1079.00	451.72
1080.00	433.00
1081.00	409.59
1082.00	401.01
1083.00	382.29
1084.00	389.31
1085.00	387.75
1086.00	422.86
1087.00	448.60
1088.00	481.37
1089.00	477.47
1090.00	456.40
1091.00	422.86
1092.00	408.81
1093.00	385.41
1094.00	382.29
1095.00	386.97
1096.00	397.11
1097.00	423.64
1098.00	422.86
1099.00	430.66
1100.00	412.71
1101.00	400.23
1102.00	417.40
1103.00	411.15
1104.00	408.81
1105.00	394.77
1106.00	402.57
1107.00	401.79
1108.00	386.97
1109.00	374.49
1110.00	380.73
1111.00	391.65
1112.00	397.11
1113.00	383.07
1114.00	365.12
1115.00	377.61
1116.00	407.25
1117.00	401.79
1118.00	378.39
1119.00	365.90
1120.00	392.43
1121.00	409.59
1122.00	425.98
1123.00	412.71
1124.00	407.25
1125.00	376.83
1126.00	360.44
1127.00	355.76
1128.00	367.46
1129.00	393.99
1130.00	403.35
1131.00	414.27
1132.00	406.47
1133.00	396.33
1134.00	393.99
1135.00	401.79
1136.00	435.34
1137.00	452.50
1138.00	452.50
1139.00	426.76
1140.00	386.19
1141.00	361.22
1142.00	375.27
1143.00	387.75
1144.00	422.86
1145.00	408.03
1146.00	428.32
1147.00	427.54
1148.00	441.58
1149.00	458.75
1150.00	475.91
1151.00	477.47
1152.00	454.06
1153.00	435.34
1154.00	421.30
1155.00	395.55
1156.00	384.63
1157.00	384.63
1158.00	386.19
1159.00	391.65
1160.00	392.43
1161.00	401.79
1162.00	411.15
1163.00	413.49
1164.00	448.60
1165.00	454.84
1166.00	451.72
1167.00	434.56
1168.00	422.08
1169.00	398.67
1170.00	401.01
1171.00	396.33
1172.00	416.62
1173.00	418.96
1174.00	411.15
1175.00	427.54
1176.00	429.10
1177.00	432.22
1178.00	422.86
1179.00	395.55
1180.00	408.03
1181.00	404.91
1182.00	445.48
1183.00	464.99
1184.00	446.26
1185.00	424.42
1186.00	404.13
1187.00	411.93
1188.00	383.07
1189.00	383.07
1190.00	405.69
1191.00	413.49
1192.00	401.01
1193.00	394.77
1194.00	412.71
1195.00	424.42
1196.00	413.49
1197.00	415.06
1198.00	413.49
1199.00	438.46
1200.00	454.84
1201.00	467.33
1202.00	463.43
1203.00	461.09
1204.00	449.38
1205.00	430.66
1206.00	430.66
1207.00	425.98
1208.00	436.90
1209.00	407.25
1210.00	422.08
1211.00	424.42
1212.00	429.10
1213.00	430.66
1214.00	421.30
1215.00	416.62
1216.00	393.21
1217.00	390.87
1218.00	389.31
1219.00	399.45
1220.00	398.67
1221.00	418.18
1222.00	418.96
1223.00	419.74
1224.00	414.27
1225.00	406.47
1226.00	399.45
1227.00	389.31
1228.00	382.29
1229.00	404.13
1230.00	409.59
1231.00	419.74
1232.00	412.71
1233.00	421.30
1234.00	422.86
1235.00	430.66
1236.00	408.81
1237.00	410.37
1238.00	405.69
1239.00	440.02
1240.00	452.50
1241.00	462.65
1242.00	429.10
1243.00	419.74
1244.00	393.99
1245.00	413.49
1246.00	419.74
1247.00	439.24
1248.00	450.16
1249.00	436.90
1250.00	425.98
1251.00	396.33
1252.00	393.99
1253.00	385.41
1254.00	411.15
1255.00	400.23
1256.00	415.84
1257.00	405.69
1258.00	429.10
1259.00	418.96
1260.00	405.69
1261.00	383.07
1262.00	393.99
1263.00	412.71
1264.00	430.66
1265.00	414.27
1266.00	390.87
1267.00	401.01
1268.00	421.30
1269.00	452.50
1270.00	444.70
1271.00	449.38
1272.00	446.26
1273.00	420.52
1274.00	411.15
1275.00	408.03
1276.00	429.10
1277.00	429.10
1278.00	436.90
1279.00	457.96
1280.00	435.34
1281.00	437.68
1282.00	425.20
1283.00	450.16
1284.00	443.14
1285.00	439.24
1286.00	426.76
1287.00	424.42
1288.00	444.70
1289.00	443.92
1290.00	426.76
1291.00	409.59
1292.00	408.03
1293.00	404.91
1294.00	395.55
1295.00	411.93
1296.00	397.89
1297.00	381.51
1298.00	375.27
1299.00	378.39
1300.00	377.61
1301.00	376.05
1302.00	400.23
1303.00	386.19
1304.00	369.80
1305.00	362.78
1306.00	370.58
1307.00	374.49
1308.00	386.97
1309.00	408.81
1310.00	422.86
1311.00	420.52
1312.00	414.27
1313.00	425.98
1314.00	411.15
1315.00	408.03
1316.00	386.97
1317.00	396.33
1318.00	408.81
1319.00	412.71
1320.00	415.06
1321.00	415.84
1322.00	417.40
1323.00	408.03
1324.00	397.11
1325.00	393.99
1326.00	399.45
1327.00	395.55
1328.00	414.27
1329.00	412.71
1330.00	424.42
1331.00	444.70
1332.00	455.62
1333.00	456.40
1334.00	426.76
1335.00	415.06
1336.00	436.12
1337.00	439.24
1338.00	456.40
1339.00	442.36
1340.00	418.18
1341.00	387.75
1342.00	354.98
1343.00	390.09
1344.00	384.63
1345.00	406.47
1346.00	386.19
1347.00	422.08
1348.00	425.98
1349.00	415.84
1350.00	408.81
1351.00	409.59
1352.00	418.96
1353.00	428.32
1354.00	415.06
1355.00	416.62
1356.00	386.97
1357.00	390.87
1358.00	379.95
1359.00	382.29
1360.00	411.93
1361.00	421.30
1362.00	436.90
1363.00	431.44
1364.00	441.58
1365.00	445.48
