SpectraSuite Data File
++++++++++++++++++++++++++++++++++++
Date: Thu Nov 16 14:27:27 EST 2017
User: cheriyan
Dark Spectrum Present: No
Reference Spectrum Present: No
Number of Sampled Component Spectra: 1
Spectrometers: USB2+H05261
Integration Time (usec): 100000 (USB2+H05261)
Spectra Averaged: 1 (USB2+H05261)
Boxcar Smoothing: 1 (USB2+H05261)
Correct for Electrical Dark: No (USB2+H05261)
Strobe/Lamp Enabled: No (USB2+H05261)
Correct for Detector Non-linearity: No (USB2+H05261)
Correct for Stray Light: No (USB2+H05261)
Number of Pixels in Processed Spectrum: 2048
>>>>>Begin Processed Spectral Data<<<<<
0.00	304.27
1.00	304.27
2.00	270.72
3.00	227.03
4.00	189.58
5.00	194.26
6.00	210.65
7.00	210.65
8.00	196.61
9.00	195.82
10.00	186.46
11.00	211.43
12.00	218.45
13.00	235.61
14.00	228.59
15.00	237.17
16.00	241.86
17.00	250.44
18.00	244.20
19.00	276.18
20.00	279.30
21.00	287.89
22.00	289.45
23.00	306.61
24.00	322.21
25.00	307.39
26.00	302.71
27.00	311.29
28.00	317.53
29.00	330.80
30.00	326.89
31.00	342.50
32.00	372.93
33.00	391.65
34.00	408.03
35.00	393.21
36.00	396.33
37.00	386.97
38.00	363.56
39.00	364.34
40.00	384.63
41.00	401.79
42.00	397.89
43.00	362.78
44.00	369.02
45.00	369.80
46.00	397.89
47.00	412.71
48.00	425.98
49.00	440.80
50.00	457.96
51.00	446.26
52.00	447.04
53.00	422.86
54.00	424.42
55.00	399.45
56.00	408.81
57.00	415.06
58.00	417.40
59.00	393.99
60.00	372.93
61.00	378.39
62.00	389.31
63.00	417.40
64.00	417.40
65.00	423.64
66.00	424.42
67.00	411.15
68.00	390.87
69.00	395.55
70.00	409.59
71.00	420.52
72.00	420.52
73.00	397.89
74.00	393.21
75.00	369.02
76.00	351.08
77.00	353.42
78.00	363.56
79.00	405.69
80.00	408.81
81.00	418.96
82.00	422.08
83.00	429.10
84.00	422.08
85.00	412.71
86.00	386.97
87.00	377.61
88.00	411.93
89.00	434.56
90.00	422.08
91.00	405.69
92.00	407.25
93.00	413.49
94.00	381.51
95.00	376.05
96.00	373.71
97.00	379.95
98.00	365.90
99.00	365.90
100.00	353.42
101.00	354.20
102.00	354.98
103.00	385.41
104.00	401.79
105.00	401.79
106.00	374.49
107.00	393.99
108.00	422.08
109.00	437.68
110.00	393.99
111.00	354.98
112.00	371.36
113.00	383.85
114.00	386.97
115.00	360.44
116.00	364.34
117.00	356.54
118.00	365.90
119.00	381.51
120.00	385.41
121.00	371.36
122.00	360.44
123.00	362.00
124.00	370.58
125.00	355.76
126.00	348.74
127.00	347.96
128.00	379.17
129.00	399.45
130.00	401.79
131.00	379.17
132.00	376.83
133.00	372.15
134.00	383.07
135.00	385.41
136.00	396.33
137.00	369.02
138.00	364.34
139.00	361.22
140.00	362.78
141.00	348.74
142.00	354.20
143.00	373.71
144.00	390.87
145.00	362.78
146.00	351.08
147.00	376.05
148.00	413.49
149.00	455.62
150.00	445.48
151.00	414.27
152.00	364.34
153.00	329.24
154.00	368.24
155.00	385.41
156.00	415.06
157.00	393.99
158.00	397.11
159.00	386.19
160.00	384.63
161.00	379.95
162.00	393.99
163.00	371.36
164.00	384.63
165.00	366.68
166.00	380.73
167.00	377.61
168.00	365.12
169.00	378.39
170.00	369.02
171.00	386.19
172.00	394.77
173.00	401.01
174.00	392.43
175.00	397.89
176.00	420.52
177.00	428.32
178.00	413.49
179.00	401.79
180.00	430.66
181.00	423.64
182.00	429.88
183.00	419.74
184.00	422.86
185.00	401.01
186.00	372.93
187.00	379.17
188.00	371.36
189.00	393.99
190.00	407.25
191.00	409.59
192.00	390.09
193.00	365.90
194.00	371.36
195.00	385.41
196.00	397.11
197.00	397.11
198.00	378.39
199.00	376.05
200.00	372.93
201.00	403.35
202.00	402.57
203.00	393.21
204.00	377.61
205.00	378.39
206.00	411.15
207.00	417.40
208.00	440.80
209.00	412.71
210.00	425.98
211.00	400.23
212.00	383.07
213.00	374.49
214.00	369.80
215.00	418.96
216.00	429.88
217.00	441.58
218.00	409.59
219.00	409.59
220.00	394.77
221.00	405.69
222.00	391.65
223.00	389.31
224.00	388.53
225.00	366.68
226.00	372.93
227.00	380.73
228.00	388.53
229.00	401.01
230.00	401.01
231.00	404.13
232.00	379.95
233.00	404.91
234.00	410.37
235.00	410.37
236.00	375.27
237.00	367.46
238.00	378.39
239.00	375.27
240.00	372.93
241.00	395.55
242.00	407.25
243.00	418.18
244.00	396.33
245.00	395.55
246.00	391.65
247.00	397.11
248.00	408.03
249.00	398.67
250.00	376.83
251.00	368.24
252.00	358.88
253.00	365.12
254.00	341.72
255.00	361.22
256.00	365.90
257.00	387.75
258.00	399.45
259.00	415.84
260.00	398.67
261.00	383.07
262.00	376.83
263.00	412.71
264.00	429.10
265.00	429.88
266.00	400.23
267.00	410.37
268.00	400.23
269.00	394.77
270.00	353.42
271.00	379.95
272.00	373.71
273.00	408.81
274.00	356.54
275.00	388.53
276.00	382.29
277.00	434.56
278.00	428.32
279.00	440.02
280.00	433.00
281.00	427.54
282.00	418.96
283.00	425.98
284.00	421.30
285.00	412.71
286.00	405.69
287.00	428.32
288.00	433.00
289.00	435.34
290.00	412.71
291.00	410.37
292.00	411.15
293.00	384.63
294.00	390.87
295.00	383.85
296.00	410.37
297.00	399.45
298.00	392.43
299.00	393.21
300.00	397.11
301.00	406.47
302.00	408.81
303.00	410.37
304.00	390.87
305.00	380.73
306.00	379.95
307.00	380.73
308.00	381.51
309.00	366.68
310.00	365.90
311.00	376.05
312.00	382.29
313.00	405.69
314.00	392.43
315.00	383.07
316.00	373.71
317.00	380.73
318.00	393.99
319.00	392.43
320.00	390.87
321.00	415.06
322.00	391.65
323.00	403.35
324.00	388.53
325.00	418.96
326.00	401.01
327.00	386.19
328.00	401.01
329.00	411.15
330.00	405.69
331.00	397.89
332.00	406.47
333.00	430.66
334.00	411.93
335.00	416.62
336.00	376.83
337.00	370.58
338.00	352.64
339.00	368.24
340.00	378.39
341.00	393.21
342.00	381.51
343.00	374.49
344.00	374.49
345.00	387.75
346.00	424.42
347.00	395.55
348.00	391.65
349.00	355.76
350.00	369.02
351.00	395.55
352.00	420.52
353.00	427.54
354.00	412.71
355.00	400.23
356.00	410.37
357.00	400.23
358.00	397.89
359.00	367.46
360.00	376.05
361.00	356.54
362.00	332.36
363.00	312.85
364.00	347.96
365.00	404.13
366.00	427.54
367.00	436.90
368.00	425.98
369.00	413.49
370.00	379.95
371.00	386.97
372.00	408.03
373.00	409.59
374.00	395.55
375.00	410.37
376.00	417.40
377.00	411.93
378.00	369.02
379.00	357.32
380.00	366.68
381.00	390.87
382.00	414.27
383.00	401.79
384.00	390.87
385.00	372.93
386.00	377.61
387.00	380.73
388.00	379.95
389.00	397.89
390.00	404.91
391.00	411.15
392.00	390.87
393.00	383.07
394.00	373.71
395.00	388.53
396.00	397.89
397.00	421.30
398.00	424.42
399.00	411.15
400.00	393.21
401.00	391.65
402.00	375.27
403.00	376.83
404.00	404.13
405.00	418.96
406.00	390.09
407.00	351.08
408.00	342.50
409.00	370.58
410.00	372.15
411.00	405.69
412.00	422.08
413.00	418.96
414.00	403.35
415.00	405.69
416.00	439.24
417.00	420.52
418.00	433.78
419.00	393.21
420.00	402.57
421.00	389.31
422.00	418.18
423.00	454.84
424.00	431.44
425.00	404.91
426.00	387.75
427.00	425.20
428.00	423.64
429.00	392.43
430.00	351.86
431.00	362.00
432.00	372.15
433.00	376.05
434.00	373.71
435.00	400.23
436.00	410.37
437.00	397.11
438.00	373.71
439.00	367.46
440.00	375.27
441.00	417.40
442.00	411.93
443.00	429.88
444.00	390.87
445.00	385.41
446.00	347.18
447.00	337.04
448.00	337.04
449.00	384.63
450.00	402.57
451.00	423.64
452.00	410.37
453.00	414.27
454.00	392.43
455.00	383.07
456.00	393.21
457.00	408.81
458.00	419.74
459.00	406.47
460.00	427.54
461.00	436.12
462.00	436.90
463.00	414.27
464.00	393.99
465.00	394.77
466.00	374.49
467.00	386.19
468.00	418.18
469.00	447.04
470.00	442.36
471.00	411.93
472.00	415.06
473.00	413.49
474.00	394.77
475.00	397.11
476.00	404.13
477.00	422.86
478.00	426.76
479.00	444.70
480.00	437.68
481.00	412.71
482.00	402.57
483.00	415.84
484.00	432.22
485.00	428.32
486.00	415.06
487.00	404.91
488.00	393.21
489.00	406.47
490.00	411.93
491.00	423.64
492.00	411.15
493.00	391.65
494.00	411.15
495.00	410.37
496.00	433.00
497.00	422.08
498.00	429.88
499.00	427.54
500.00	401.79
501.00	378.39
502.00	368.24
503.00	382.29
504.00	386.97
505.00	414.27
506.00	439.24
507.00	451.72
508.00	437.68
509.00	409.59
510.00	421.30
511.00	426.76
512.00	432.22
513.00	414.27
514.00	404.91
515.00	393.99
516.00	395.55
517.00	404.13
518.00	409.59
519.00	426.76
520.00	402.57
521.00	407.25
522.00	390.87
523.00	407.25
524.00	406.47
525.00	411.93
526.00	408.81
527.00	400.23
528.00	413.49
529.00	390.09
530.00	404.13
531.00	384.63
532.00	433.78
533.00	436.90
534.00	449.38
535.00	420.52
536.00	408.81
537.00	416.62
538.00	412.71
539.00	418.96
540.00	395.55
541.00	418.18
542.00	402.57
543.00	413.49
544.00	413.49
545.00	419.74
546.00	408.03
547.00	391.65
548.00	397.89
549.00	408.03
550.00	393.99
551.00	386.97
552.00	369.02
553.00	383.07
554.00	397.11
555.00	447.04
556.00	468.11
557.00	466.55
558.00	429.10
559.00	390.87
560.00	387.75
561.00	384.63
562.00	398.67
563.00	393.21
564.00	385.41
565.00	381.51
566.00	387.75
567.00	420.52
568.00	393.99
569.00	399.45
570.00	366.68
571.00	407.25
572.00	397.11
573.00	415.06
574.00	417.40
575.00	401.79
576.00	408.03
577.00	379.17
578.00	382.29
579.00	397.11
580.00	418.96
581.00	425.20
582.00	403.35
583.00	393.21
584.00	393.21
585.00	424.42
586.00	418.18
587.00	436.12
588.00	412.71
589.00	433.00
590.00	414.27
591.00	395.55
592.00	370.58
593.00	383.85
594.00	405.69
595.00	424.42
596.00	418.96
597.00	417.40
598.00	435.34
599.00	431.44
600.00	435.34
601.00	420.52
602.00	415.84
603.00	401.79
604.00	415.06
605.00	427.54
606.00	434.56
607.00	437.68
608.00	426.76
609.00	416.62
610.00	386.97
611.00	372.15
612.00	407.25
613.00	418.18
614.00	432.22
615.00	387.75
616.00	373.71
617.00	365.12
618.00	336.26
619.00	352.64
620.00	371.36
621.00	420.52
622.00	416.62
623.00	425.20
624.00	397.11
625.00	382.29
626.00	365.12
627.00	389.31
628.00	413.49
629.00	431.44
630.00	426.76
631.00	415.84
632.00	418.96
633.00	445.48
634.00	492.29
635.00	579.67
636.00	669.39
637.00	761.45
638.00	733.37
639.00	695.92
640.00	616.34
641.00	556.27
642.00	488.39
643.00	423.64
644.00	432.22
645.00	426.76
646.00	424.42
647.00	408.03
648.00	414.27
649.00	421.30
650.00	411.15
651.00	393.99
652.00	396.33
653.00	414.27
654.00	452.50
655.00	444.70
656.00	441.58
657.00	383.85
658.00	402.57
659.00	386.19
660.00	418.18
661.00	436.12
662.00	456.40
663.00	442.36
664.00	419.74
665.00	411.93
666.00	406.47
667.00	398.67
668.00	390.09
669.00	408.81
670.00	417.40
671.00	419.74
672.00	426.76
673.00	400.23
674.00	411.15
675.00	411.93
676.00	453.28
677.00	462.65
678.00	463.43
679.00	479.03
680.00	456.40
681.00	465.77
682.00	427.54
683.00	429.88
684.00	424.42
685.00	429.88
686.00	436.12
687.00	414.27
688.00	402.57
689.00	408.81
690.00	405.69
691.00	416.62
692.00	401.79
693.00	392.43
694.00	386.97
695.00	388.53
696.00	408.81
697.00	417.40
698.00	420.52
699.00	402.57
700.00	395.55
701.00	383.85
702.00	419.74
703.00	402.57
704.00	408.81
705.00	390.09
706.00	404.91
707.00	383.07
708.00	382.29
709.00	368.24
710.00	373.71
711.00	384.63
712.00	402.57
713.00	439.24
714.00	413.49
715.00	404.91
716.00	369.80
717.00	379.95
718.00	430.66
719.00	446.26
720.00	468.11
721.00	423.64
722.00	439.24
723.00	429.88
724.00	434.56
725.00	441.58
726.00	436.12
727.00	446.26
728.00	409.59
729.00	402.57
730.00	382.29
731.00	390.09
732.00	366.68
733.00	358.88
734.00	370.58
735.00	405.69
736.00	415.84
737.00	418.96
738.00	427.54
739.00	444.70
740.00	440.02
741.00	419.74
742.00	392.43
743.00	386.19
744.00	379.17
745.00	371.36
746.00	387.75
747.00	391.65
748.00	401.01
749.00	379.95
750.00	413.49
751.00	411.93
752.00	423.64
753.00	406.47
754.00	424.42
755.00	458.75
756.00	444.70
757.00	441.58
758.00	392.43
759.00	399.45
760.00	397.11
761.00	418.18
762.00	402.57
763.00	407.25
764.00	407.25
765.00	411.15
766.00	384.63
767.00	361.22
768.00	346.40
769.00	358.10
770.00	378.39
771.00	417.40
772.00	408.81
773.00	397.89
774.00	372.93
775.00	409.59
776.00	442.36
777.00	445.48
778.00	443.14
779.00	411.93
780.00	427.54
781.00	412.71
782.00	423.64
783.00	466.55
784.00	474.35
785.00	434.56
786.00	388.53
787.00	356.54
788.00	424.42
789.00	407.25
790.00	428.32
791.00	384.63
792.00	401.79
793.00	399.45
794.00	404.13
795.00	408.81
796.00	390.87
797.00	390.87
798.00	387.75
799.00	401.79
800.00	393.21
801.00	364.34
802.00	369.02
803.00	370.58
804.00	412.71
805.00	415.84
806.00	429.10
807.00	401.79
808.00	428.32
809.00	436.90
810.00	451.72
811.00	415.06
812.00	389.31
813.00	358.88
814.00	369.02
815.00	381.51
816.00	391.65
817.00	393.99
818.00	395.55
819.00	412.71
820.00	393.99
821.00	404.91
822.00	393.99
823.00	410.37
824.00	377.61
825.00	378.39
826.00	355.76
827.00	365.12
828.00	374.49
829.00	385.41
830.00	418.96
831.00	399.45
832.00	419.74
833.00	407.25
834.00	413.49
835.00	409.59
836.00	409.59
837.00	421.30
838.00	393.99
839.00	364.34
840.00	357.32
841.00	386.97
842.00	393.99
843.00	412.71
844.00	413.49
845.00	436.90
846.00	440.02
847.00	421.30
848.00	403.35
849.00	371.36
850.00	368.24
851.00	397.89
852.00	411.93
853.00	418.96
854.00	371.36
855.00	373.71
856.00	367.46
857.00	393.99
858.00	401.01
859.00	416.62
860.00	405.69
861.00	401.01
862.00	401.79
863.00	434.56
864.00	425.20
865.00	445.48
866.00	429.10
867.00	424.42
868.00	402.57
869.00	389.31
870.00	395.55
871.00	384.63
872.00	383.07
873.00	395.55
874.00	387.75
875.00	390.87
876.00	383.07
877.00	375.27
878.00	393.99
879.00	369.02
880.00	390.87
881.00	376.83
882.00	417.40
883.00	436.90
884.00	459.53
885.00	420.52
886.00	397.11
887.00	369.02
888.00	391.65
889.00	420.52
890.00	422.08
891.00	422.86
892.00	413.49
893.00	414.27
894.00	393.21
895.00	403.35
896.00	421.30
897.00	443.14
898.00	422.86
899.00	415.06
900.00	418.18
901.00	418.96
902.00	419.74
903.00	414.27
904.00	407.25
905.00	401.01
906.00	411.15
907.00	423.64
908.00	442.36
909.00	786.42
910.00	786.42
911.00	763.79
912.00	399.45
913.00	407.25
914.00	390.87
915.00	399.45
916.00	388.53
917.00	404.91
918.00	418.96
919.00	431.44
920.00	433.78
921.00	415.84
922.00	404.91
923.00	411.93
924.00	411.15
925.00	376.05
926.00	386.19
927.00	393.21
928.00	445.48
929.00	422.08
930.00	420.52
931.00	393.99
932.00	364.34
933.00	360.44
934.00	376.83
935.00	433.00
936.00	439.24
937.00	441.58
938.00	443.14
939.00	462.65
940.00	468.89
941.00	439.24
942.00	414.27
943.00	394.77
944.00	406.47
945.00	401.01
946.00	393.99
947.00	410.37
948.00	421.30
949.00	441.58
950.00	433.00
951.00	429.88
952.00	419.74
953.00	412.71
954.00	409.59
955.00	417.40
956.00	404.91
957.00	395.55
958.00	385.41
959.00	387.75
960.00	379.17
961.00	384.63
962.00	393.21
963.00	429.88
964.00	438.46
965.00	445.48
966.00	430.66
967.00	421.30
968.00	409.59
969.00	404.13
970.00	383.85
971.00	378.39
972.00	377.61
973.00	393.21
974.00	389.31
975.00	372.15
976.00	347.18
977.00	339.38
978.00	383.07
979.00	422.86
980.00	486.05
981.00	464.21
982.00	447.82
983.00	425.20
984.00	415.06
985.00	413.49
986.00	350.30
987.00	377.61
988.00	384.63
989.00	414.27
990.00	389.31
991.00	374.49
992.00	366.68
993.00	393.99
994.00	404.13
995.00	423.64
996.00	431.44
997.00	433.78
998.00	417.40
999.00	395.55
1000.00	390.09
1001.00	402.57
1002.00	380.73
1003.00	390.87
1004.00	401.79
1005.00	417.40
1006.00	415.06
1007.00	419.74
1008.00	419.74
1009.00	425.98
1010.00	429.88
1011.00	423.64
1012.00	417.40
1013.00	391.65
1014.00	413.49
1015.00	435.34
1016.00	439.24
1017.00	411.15
1018.00	375.27
1019.00	368.24
1020.00	365.12
1021.00	363.56
1022.00	379.95
1023.00	387.75
1024.00	377.61
1025.00	371.36
1026.00	383.07
1027.00	404.91
1028.00	398.67
1029.00	392.43
1030.00	383.85
1031.00	407.25
1032.00	399.45
1033.00	395.55
1034.00	401.79
1035.00	415.06
1036.00	460.31
1037.00	453.28
1038.00	464.21
1039.00	437.68
1040.00	435.34
1041.00	401.01
1042.00	385.41
1043.00	378.39
1044.00	415.84
1045.00	464.99
1046.00	442.36
1047.00	414.27
1048.00	374.49
1049.00	380.73
1050.00	385.41
1051.00	382.29
1052.00	404.91
1053.00	414.27
1054.00	405.69
1055.00	393.21
1056.00	392.43
1057.00	405.69
1058.00	415.84
1059.00	429.10
1060.00	435.34
1061.00	412.71
1062.00	379.17
1063.00	354.98
1064.00	363.56
1065.00	420.52
1066.00	438.46
1067.00	441.58
1068.00	408.03
1069.00	376.05
1070.00	378.39
1071.00	362.78
1072.00	403.35
1073.00	430.66
1074.00	442.36
1075.00	401.79
1076.00	369.80
1077.00	382.29
1078.00	423.64
1079.00	436.90
1080.00	424.42
1081.00	387.75
1082.00	385.41
1083.00	362.00
1084.00	358.88
1085.00	356.54
1086.00	385.41
1087.00	406.47
1088.00	395.55
1089.00	392.43
1090.00	392.43
1091.00	383.07
1092.00	392.43
1093.00	375.27
1094.00	404.91
1095.00	393.21
1096.00	433.78
1097.00	415.06
1098.00	424.42
1099.00	425.20
1100.00	440.02
1101.00	422.08
1102.00	415.84
1103.00	405.69
1104.00	397.11
1105.00	394.77
1106.00	391.65
1107.00	416.62
1108.00	396.33
1109.00	404.91
1110.00	397.11
1111.00	384.63
1112.00	372.93
1113.00	379.17
1114.00	389.31
1115.00	418.96
1116.00	405.69
1117.00	429.10
1118.00	433.78
1119.00	451.72
1120.00	446.26
1121.00	419.74
1122.00	428.32
1123.00	433.78
1124.00	418.18
1125.00	410.37
1126.00	388.53
1127.00	375.27
1128.00	359.66
1129.00	354.98
1130.00	417.40
1131.00	411.93
1132.00	429.10
1133.00	387.75
1134.00	416.62
1135.00	412.71
1136.00	429.88
1137.00	443.14
1138.00	454.84
1139.00	435.34
1140.00	425.98
1141.00	429.88
1142.00	471.23
1143.00	457.18
1144.00	440.80
1145.00	420.52
1146.00	447.04
1147.00	458.74
1148.00	449.38
1149.00	425.20
1150.00	443.14
1151.00	473.57
1152.00	468.11
1153.00	447.82
1154.00	404.13
1155.00	397.89
1156.00	401.79
1157.00	405.69
1158.00	417.40
1159.00	411.93
1160.00	429.88
1161.00	425.98
1162.00	440.80
1163.00	450.94
1164.00	449.38
1165.00	433.78
1166.00	429.88
1167.00	438.46
1168.00	456.40
1169.00	434.56
1170.00	413.49
1171.00	401.01
1172.00	450.16
1173.00	473.57
1174.00	473.57
1175.00	456.40
1176.00	461.09
1177.00	450.16
1178.00	460.31
1179.00	440.80
1180.00	459.53
1181.00	422.86
1182.00	449.38
1183.00	460.31
1184.00	449.38
1185.00	422.08
1186.00	402.57
1187.00	412.71
1188.00	399.45
1189.00	397.89
1190.00	390.87
1191.00	408.03
1192.00	387.75
1193.00	397.89
1194.00	406.47
1195.00	433.78
1196.00	439.24
1197.00	430.66
1198.00	432.22
1199.00	464.99
1200.00	466.55
1201.00	466.55
1202.00	446.26
1203.00	464.21
1204.00	440.80
1205.00	435.34
1206.00	390.09
1207.00	404.13
1208.00	404.13
1209.00	427.54
1210.00	442.36
1211.00	432.22
1212.00	448.60
1213.00	435.34
1214.00	442.36
1215.00	422.86
1216.00	426.76
1217.00	452.50
1218.00	450.16
1219.00	429.88
1220.00	397.89
1221.00	392.43
1222.00	422.86
1223.00	408.03
1224.00	400.23
1225.00	372.15
1226.00	367.46
1227.00	394.77
1228.00	395.55
1229.00	394.77
1230.00	397.89
1231.00	416.62
1232.00	460.31
1233.00	462.65
1234.00	457.96
1235.00	433.00
1236.00	441.58
1237.00	450.16
1238.00	446.26
1239.00	425.98
1240.00	417.40
1241.00	408.81
1242.00	418.18
1243.00	386.19
1244.00	385.41
1245.00	386.97
1246.00	390.87
1247.00	405.69
1248.00	394.77
1249.00	442.36
1250.00	442.36
1251.00	445.48
1252.00	411.93
1253.00	394.77
1254.00	365.90
1255.00	370.58
1256.00	369.02
1257.00	395.55
1258.00	391.65
1259.00	401.79
1260.00	390.09
1261.00	394.77
1262.00	412.71
1263.00	422.86
1264.00	439.24
1265.00	429.10
1266.00	426.76
1267.00	405.69
1268.00	372.93
1269.00	389.31
1270.00	397.89
1271.00	436.12
1272.00	422.08
1273.00	425.20
1274.00	424.42
1275.00	415.84
1276.00	422.86
1277.00	405.69
1278.00	404.91
1279.00	401.01
1280.00	409.59
1281.00	415.84
1282.00	411.15
1283.00	429.88
1284.00	458.75
1285.00	473.57
1286.00	456.40
1287.00	425.98
1288.00	425.98
1289.00	415.84
1290.00	401.79
1291.00	388.53
1292.00	404.91
1293.00	421.30
1294.00	397.89
1295.00	398.67
1296.00	414.27
1297.00	436.12
1298.00	432.22
1299.00	425.98
1300.00	421.30
1301.00	412.71
1302.00	407.25
1303.00	415.06
1304.00	423.64
1305.00	423.64
1306.00	434.56
1307.00	429.10
1308.00	433.78
1309.00	408.03
1310.00	418.96
1311.00	407.25
1312.00	441.58
1313.00	455.62
1314.00	450.16
1315.00	410.37
1316.00	395.55
1317.00	421.30
1318.00	431.44
1319.00	439.24
1320.00	427.54
1321.00	432.22
1322.00	401.79
1323.00	392.43
1324.00	398.67
1325.00	433.78
1326.00	454.84
1327.00	465.77
1328.00	441.58
1329.00	438.46
1330.00	437.68
1331.00	462.65
1332.00	486.83
1333.00	480.59
1334.00	454.06
1335.00	429.88
1336.00	425.20
1337.00	436.90
1338.00	441.58
1339.00	429.88
1340.00	395.55
1341.00	375.27
1342.00	361.22
1343.00	383.85
1344.00	390.87
1345.00	393.99
1346.00	384.63
1347.00	376.05
1348.00	376.05
1349.00	393.99
1350.00	391.65
1351.00	429.10
1352.00	431.44
1353.00	439.24
1354.00	404.91
1355.00	416.62
1356.00	420.52
1357.00	456.40
1358.00	452.50
1359.00	455.62
1360.00	452.50
1361.00	428.32
1362.00	418.96
1363.00	393.99
1364.00	392.43
1365.00	383.07
